; (content of file \\Mai-b11e5c0abfd\d8\User\55373\0851539\0831\0811\0811A_2th_1.raw)
_FILEVERSION = 2
_SAMPLE = 
_+SAMPLE = 
_SITE = Taiwan
_USER = Administrator
_GONIOMETER_CODE = 20
_STAGE_CODE = 13
; Goniometer : D8 theta/2theta, stage : Unknown
_SAMPLE_CHANGER_CODE = 0
_ATTACHMENTS_CODE = 0
_GONIOMETER_RADIUS = 300
_FIXED_DIVSLIT = 0.6
_FIXED_SAMPLESLIT = 0
_FIXED_DETSLIT = 0.1
_MONOCHROMATOR = 0
; Incident beam monochromator : None
_THIN_FILM = N
_BETA_FILTER = N
_FIXED_ANTISLIT = 0.6
_ANALYZER_CODE = 0
; Received beam analyzer : None
_DATEMEASURED = "31-Aug-2021 19:26:54"
_WL_UNIT = A
_WL1 = 1.5406
_WL2 = 1.54439
_WL3 = 1.39222
_WLRATIO = 0.5
_ANODE = Cu

; Data for range 1
_DRIVE = COUPLED
_STEPTIME = 0.2
_STEPSIZE = 0.02
_STEPMODE = C
_START = 34
_THETA = 17
_2THETA = 34
_KHI = 0
_PHI = -177
_X = 0
_Y = 0
_Z = -0.0713
_DETECTOR = 1
; Detector type : Scintillation counter
_HV = 662
_GAIN = 80
_LLD = 0.545
_ULD = 1.917
_DETECTORSLIT = out
_AUX1 = 0
_AUX2 = 0
_AUX3 = 0
_TIMESTARTED = 16
_TEMP_RATE = -1
_TEMP_DELAY = -1
_KV = 40
_MA = 40
_RANGE_WL = 1.5406
_3DPLANE = 0
_V4_COUNTERS_MASK = 1
_V4_DRIVES_MASK = 0
_V4_ENCODERS_MASK = 0
_2THETACOUNTS = 1
; 2THETA  Cnt1_D1
  34.0000          4
  34.0200          2
  34.0400          2
  34.0600          3
  34.0800          5
  34.1000          1
  34.1200          5
  34.1400          2
  34.1600          4
  34.1800          5
  34.2000          6
  34.2200          2
  34.2400          3
  34.2600          5
  34.2800          2
  34.3000          4
  34.3200          3
  34.3400          2
  34.3600          3
  34.3800          3
  34.4000          2
  34.4200          4
  34.4400          3
  34.4600          0
  34.4800          5
  34.5000          5
  34.5200          4
  34.5400          4
  34.5600          2
  34.5800          2
  34.6000          3
  34.6200          7
  34.6400          2
  34.6600          4
  34.6800          2
  34.7000          4
  34.7200          2
  34.7400          3
  34.7600          3
  34.7800          2
  34.8000          6
  34.8200          1
  34.8400          2
  34.8600          2
  34.8800          1
  34.9000          1
  34.9200          1
  34.9400          3
  34.9600          2
  34.9800          2
  35.0000          3
  35.0200          2
  35.0400          3
  35.0600          5
  35.0800          2
  35.1000          7
  35.1200          4
  35.1400          5
  35.1600          4
  35.1800          4
  35.2000          4
  35.2200          4
  35.2400          1
  35.2600          2
  35.2800          1
  35.3000          3
  35.3200          3
  35.3400          4
  35.3600          5
  35.3800          2
  35.4000          4
  35.4200          1
  35.4400          2
  35.4600          3
  35.4800          5
  35.5000          5
  35.5200          5
  35.5400          6
  35.5600          3
  35.5800          3
  35.6000          1
  35.6200          0
  35.6400          2
  35.6600          4
  35.6800          0
  35.7000          2
  35.7200          2
  35.7400          1
  35.7600          1
  35.7800          4
  35.8000          2
  35.8200          2
  35.8400          1
  35.8600          4
  35.8800          2
  35.9000          3
  35.9200          1
  35.9400          5
  35.9600          1
  35.9800          1
  36.0000          0
  36.0200          4
  36.0400          2
  36.0600          2
  36.0800          4
  36.1000          2
  36.1200          4
  36.1400          0
  36.1600          6
  36.1800          2
  36.2000          4
  36.2200          5
  36.2400          3
  36.2600          3
  36.2800          5
  36.3000          1
  36.3200          6
  36.3400          4
  36.3600          2
  36.3800          1
  36.4000          2
  36.4200          1
  36.4400          4
  36.4600          2
  36.4800          2
  36.5000          2
  36.5200          3
  36.5400          4
  36.5600          8
  36.5800          9
  36.6000          2
  36.6200          2
  36.6400          2
  36.6600          2
  36.6800          2
  36.7000          0
  36.7200          4
  36.7400          4
  36.7600          1
  36.7800          1
  36.8000          2
  36.8200          1
  36.8400          1
  36.8600          4
  36.8800          4
  36.9000          4
  36.9200          4
  36.9400          2
  36.9600          1
  36.9800          2
  37.0000          2
  37.0200          6
  37.0400          1
  37.0600          1
  37.0800          3
  37.1000          5
  37.1200          0
  37.1400          4
  37.1600          2
  37.1800          1
  37.2000          4
  37.2200          3
  37.2400          5
  37.2600          4
  37.2800          0
  37.3000          3
  37.3200          6
  37.3400          1
  37.3600          5
  37.3800          4
  37.4000          4
  37.4200          5
  37.4400          4
  37.4600          2
  37.4800          2
  37.5000          5
  37.5200          3
  37.5400          2
  37.5600          2
  37.5800          5
  37.6000          3
  37.6200          6
  37.6400          4
  37.6600          2
  37.6800          4
  37.7000          2
  37.7200          8
  37.7400          2
  37.7600          2
  37.7800          2
  37.8000          1
  37.8200          4
  37.8400          6
  37.8600          5
  37.8800          9
  37.9000          5
  37.9200         10
  37.9400         12
  37.9600          9
  37.9800         13
  38.0000         10
  38.0200         16
  38.0400         19
  38.0600         21
  38.0800         15
  38.1000         15
  38.1200         13
  38.1400         18
  38.1600         15
  38.1800         18
  38.2000         23
  38.2200         22
  38.2400         11
  38.2600         15
  38.2800         19
  38.3000         13
  38.3200         12
  38.3400         11
  38.3600         10
  38.3800          7
  38.4000         10
  38.4200          7
  38.4400         10
  38.4600          3
  38.4800          6
  38.5000         11
  38.5200          8
  38.5400          8
  38.5600          9
  38.5800          5
  38.6000          4
  38.6200          5
  38.6400          4
  38.6600          5
  38.6800          1
  38.7000          4
  38.7200          7
  38.7400          3
  38.7600          5
  38.7800          3
  38.8000          2
  38.8200          4
  38.8400          6
  38.8600          3
  38.8800          4
  38.9000          8
  38.9200          3
  38.9400          4
  38.9600          4
  38.9800          4
  39.0000          3
  39.0200          4
  39.0400          3
  39.0600          3
  39.0800          2
  39.1000          4
  39.1200          3
  39.1400          1
  39.1600          8
  39.1800          2
  39.2000          0
  39.2200          3
  39.2400          5
  39.2600          1
  39.2800          1
  39.3000          1
  39.3200          3
  39.3400          4
  39.3600          4
  39.3800          2
  39.4000          1
  39.4200          5
  39.4400          2
  39.4600          5
  39.4800          1
  39.5000          4
  39.5200          7
  39.5400          4
  39.5600          3
  39.5800          2
  39.6000          2
  39.6200          3
  39.6400          4
  39.6600          2
  39.6800          8
  39.7000          3
  39.7200          5
  39.7400          4
  39.7600          2
  39.7800          0
  39.8000          2
  39.8200          4
  39.8400          1
  39.8600          3
  39.8800          4
  39.9000          6
  39.9200          3
  39.9400          2
  39.9600          4
  39.9800          8
  40.0000          2
  40.0200          3
  40.0400          6
  40.0600          1
  40.0800          5
  40.1000          1
  40.1200          2
  40.1400          3
  40.1600          3
  40.1800          4
  40.2000          3
  40.2200          3
  40.2400          5
  40.2600          7
  40.2800          1
  40.3000          6
  40.3200          2
  40.3400          3
  40.3600          3
  40.3800          1
  40.4000          4
  40.4200          2
  40.4400          5
  40.4600          4
  40.4800          4
  40.5000          1
  40.5200          1
  40.5400          3
  40.5600          7
  40.5800          2
  40.6000          5
  40.6200          2
  40.6400          4
  40.6600          3
  40.6800          5
  40.7000          6
  40.7200          4
  40.7400          4
  40.7600          4
  40.7800          2
  40.8000          6
  40.8200          1
  40.8400          1
  40.8600          8
  40.8800          1
  40.9000          2
  40.9200          1
  40.9400          0
  40.9600          3
  40.9800          4
  41.0000          1
  41.0200          1
  41.0400          0
  41.0600          1
  41.0800          3
  41.1000          0
  41.1200          5
  41.1400          1
  41.1600          5
  41.1800          1
  41.2000          5
  41.2200          3
  41.2400          3
  41.2600          5
  41.2800          4
  41.3000          6
  41.3200          5
  41.3400          1
  41.3600          6
  41.3800          3
  41.4000          7
  41.4200          4
  41.4400          2
  41.4600          4
  41.4800          3
  41.5000          9
  41.5200          4
  41.5400          3
  41.5600         11
  41.5800          2
  41.6000          4
  41.6200          4
  41.6400          1
  41.6600          5
  41.6800          3
  41.7000          5
  41.7200          6
  41.7400          3
  41.7600          7
  41.7800          4
  41.8000          4
  41.8200          2
  41.8400          4
  41.8600          5
  41.8800          3
  41.9000          4
  41.9200          6
  41.9400         13
  41.9600          4
  41.9800          5
  42.0000          3
  42.0200          2
  42.0400          5
  42.0600          5
  42.0800          4
  42.1000          7
  42.1200          4
  42.1400          0
  42.1600          2
  42.1800          1
  42.2000          4
  42.2200          1
  42.2400          4
  42.2600         11
  42.2800          4
  42.3000          5
  42.3200          3
  42.3400          2
  42.3600          3
  42.3800          3
  42.4000          6
  42.4200          4
  42.4400          5
  42.4600          4
  42.4800          6
  42.5000          4
  42.5200          4
  42.5400          4
  42.5600          6
  42.5800          2
  42.6000          3
  42.6200          4
  42.6400          5
  42.6600          3
  42.6800          1
  42.7000          2
  42.7200          3
  42.7400          3
  42.7600          1
  42.7800          8
  42.8000          2
  42.8200          5
  42.8400          1
  42.8600          2
  42.8800          3
  42.9000          2
  42.9200          2
  42.9400          2
  42.9600          1
  42.9800          2
  43.0000          4
  43.0200          3
  43.0400          7
  43.0600          5
  43.0800          4
  43.1000          3
  43.1200          7
  43.1400          3
  43.1600          3
  43.1800          4
  43.2000          5
  43.2200          3
  43.2400          4
  43.2600          3
  43.2800          1
  43.3000          4
  43.3200          3
  43.3400          2
  43.3600          3
  43.3800          3
  43.4000          2
  43.4200          0
  43.4400          5
  43.4600          4
  43.4800          3
  43.5000          2
  43.5200          5
  43.5400          2
  43.5600          0
  43.5800          1
  43.6000          4
  43.6200          3
  43.6400          5
  43.6600          2
  43.6800          3
  43.7000          4
  43.7200          2
  43.7400          3
  43.7600          5
  43.7800          1
  43.8000          4
  43.8200          4
  43.8400          5
  43.8600          4
  43.8800          5
  43.9000          3
  43.9200          3
  43.9400          5
  43.9600          4
  43.9800          6
  44.0000          6
  44.0200          4
  44.0400          5
  44.0600          6
  44.0800          5
  44.1000          9
  44.1200          8
  44.1400         10
  44.1600          8
  44.1800          7
  44.2000         11
  44.2200          8
  44.2400          7
  44.2600          7
  44.2800          9
  44.3000          9
  44.3200          9
  44.3400         10
  44.3600          9
  44.3800         21
  44.4000          9
  44.4200          7
  44.4400          5
  44.4600          1
  44.4800          6
  44.5000          3
  44.5200          8
  44.5400          6
  44.5600          9
  44.5800          3
  44.6000          5
  44.6200          1
  44.6400          8
  44.6600          6
  44.6800          5
  44.7000          7
  44.7200          6
  44.7400          3
  44.7600          5
  44.7800          5
  44.8000          2
  44.8200          5
  44.8400          3
  44.8600          3
  44.8800          2
  44.9000          3
  44.9200          2
  44.9400          4
  44.9600          6
  44.9800          2
  45.0000          3
  45.0200          1
  45.0400          4
  45.0600          2
  45.0800          2
  45.1000          3
  45.1200          4
  45.1400          1
  45.1600          4
  45.1800          6
  45.2000          0
  45.2200          5
  45.2400          1
  45.2600          4
  45.2800          6
  45.3000          3
  45.3200          1
  45.3400          2
  45.3600          2
  45.3800          4
  45.4000          6
  45.4200          2
  45.4400          4
  45.4600          3
  45.4800          3
  45.5000          4
  45.5200          1
  45.5400          3
  45.5600          3
  45.5800          2
  45.6000          4
  45.6200          4
  45.6400          4
  45.6600          4
  45.6800          3
  45.7000          2
  45.7200          4
  45.7400          1
  45.7600          3
  45.7800          2
  45.8000          2
  45.8200          2
  45.8400          3
  45.8600          5
  45.8800          2
  45.9000          1
  45.9200          4
  45.9400          1
  45.9600          3
  45.9800          2
  46.0000          3
  46.0200          1
  46.0400          3
  46.0600          4
  46.0800          1
  46.1000          5
  46.1200          1
  46.1400          9
  46.1600          6
  46.1800          0
  46.2000          1
  46.2200          3
  46.2400          1
  46.2600          2
  46.2800          4
  46.3000          5
  46.3200          3
  46.3400          1
  46.3600          2
  46.3800          6
  46.4000          4
  46.4200          1
  46.4400          3
  46.4600          1
  46.4800          4
  46.5000          2
  46.5200          1
  46.5400          1
  46.5600          5
  46.5800          2
  46.6000          4
  46.6200          6
  46.6400          0
  46.6600          1
  46.6800          0
  46.7000          4
  46.7200          0
  46.7400          5
  46.7600          0
  46.7800          8
  46.8000          3
  46.8200          0
  46.8400          2
  46.8600          1
  46.8800          6
  46.9000          4
  46.9200          1
  46.9400          5
  46.9600          4
  46.9800          1
  47.0000          4
  47.0200          1
  47.0400          0
  47.0600          2
  47.0800          1
  47.1000          1
  47.1200          5
  47.1400          2
  47.1600          0
  47.1800          3
  47.2000          6
  47.2200          0
  47.2400          1
  47.2600          1
  47.2800          5
  47.3000          1
  47.3200          3
  47.3400          0
  47.3600          4
  47.3800          1
  47.4000          0
  47.4200          0
  47.4400          4
  47.4600          2
  47.4800          2
  47.5000          2
  47.5200          1
  47.5400          0
  47.5600          1
  47.5800          5
  47.6000          4
  47.6200          7
  47.6400          5
  47.6600          4
  47.6800          5
  47.7000          2
  47.7200          1
  47.7400          2
  47.7600          3
  47.7800          4
  47.8000          2
  47.8200          4
  47.8400          4
  47.8600          1
  47.8800          5
  47.9000          1
  47.9200          2
  47.9400          0
  47.9600          3
  47.9800          2
  48.0000          1
  48.0200          1
  48.0400          4
  48.0600          2
  48.0800          2
  48.1000          3
  48.1200          4
  48.1400          2
  48.1600          0
  48.1800          1
  48.2000          0
  48.2200          2
  48.2400          3
  48.2600          1
  48.2800          3
  48.3000          1
  48.3200          6
  48.3400          3
  48.3600          2
  48.3800          2
  48.4000          3
  48.4200          4
  48.4400          4
  48.4600          3
  48.4800          2
  48.5000          3
  48.5200          3
  48.5400          2
  48.5600          4
  48.5800          3
  48.6000          4
  48.6200          2
  48.6400          2
  48.6600          2
  48.6800          2
  48.7000          1
  48.7200          1
  48.7400          2
  48.7600          4
  48.7800          1
  48.8000          0
  48.8200          0
  48.8400          4
  48.8600          3
  48.8800          1
  48.9000          5
  48.9200          3
  48.9400          2
  48.9600          3
  48.9800          2
  49.0000          4
  49.0200          3
  49.0400          3
  49.0600          4
  49.0800          4
  49.1000          3
  49.1200          0
  49.1400          1
  49.1600          2
  49.1800          3
  49.2000          1
  49.2200          0
  49.2400          1
  49.2600          3
  49.2800          4
  49.3000          4
  49.3200          1
  49.3400          2
  49.3600          1
  49.3800          0
  49.4000          2
  49.4200          4
  49.4400          3
  49.4600          6
  49.4800          3
  49.5000          1
  49.5200          5
  49.5400          2
  49.5600          2
  49.5800          4
  49.6000          3
  49.6200          1
  49.6400          2
  49.6600          1
  49.6800          2
  49.7000          0
  49.7200          2
  49.7400          0
  49.7600          3
  49.7800          1
  49.8000          2
  49.8200          1
  49.8400          3
  49.8600          2
  49.8800          3
  49.9000          5
  49.9200          4
  49.9400          5
  49.9600          3
  49.9800          2
  50.0000          2
  50.0200          3
  50.0400          2
  50.0600          2
  50.0800          1
  50.1000          2
  50.1200          0
  50.1400          4
  50.1600          2
  50.1800          2
  50.2000          2
  50.2200          1
  50.2400          1
  50.2600          3
  50.2800          2
  50.3000          0
  50.3200          3
  50.3400          2
  50.3600          0
  50.3800          0
  50.4000          1
  50.4200          2
  50.4400          1
  50.4600          4
  50.4800          4
  50.5000          5
  50.5200          4
  50.5400          1
  50.5600          3
  50.5800          4
  50.6000          2
  50.6200          2
  50.6400          0
  50.6600          1
  50.6800          3
  50.7000          1
  50.7200          0
  50.7400          2
  50.7600          2
  50.7800          4
  50.8000          1
  50.8200          3
  50.8400          3
  50.8600          2
  50.8800          3
  50.9000          2
  50.9200          3
  50.9400          1
  50.9600          4
  50.9800          4
  51.0000          2
  51.0200          2
  51.0400          1
  51.0600          3
  51.0800          1
  51.1000          0
  51.1200          0
  51.1400          5
  51.1600          1
  51.1800          1
  51.2000          0
  51.2200          2
  51.2400          2
  51.2600          0
  51.2800          3
  51.3000          2
  51.3200          2
  51.3400          4
  51.3600          1
  51.3800          1
  51.4000          0
  51.4200          3
  51.4400          3
  51.4600          2
  51.4800          4
  51.5000          7
  51.5200          3
  51.5400          1
  51.5600          3
  51.5800          2
  51.6000          6
  51.6200          2
  51.6400          1
  51.6600          1
  51.6800          3
  51.7000          1
  51.7200          6
  51.7400          0
  51.7600          2
  51.7800          3
  51.8000          2
  51.8200          1
  51.8400          4
  51.8600          3
  51.8800          2
  51.9000          3
  51.9200          1
  51.9400          2
  51.9600          4
  51.9800          2
  52.0000          3
  52.0200          3
  52.0400          2
  52.0600          3
  52.0800          0
  52.1000          2
  52.1200          1
  52.1400          1
  52.1600          1
  52.1800          2
  52.2000          2
  52.2200          4
  52.2400          2
  52.2600          1
  52.2800          4
  52.3000          5
  52.3200          2
  52.3400          1
  52.3600          4
  52.3800          4
  52.4000          3
  52.4200          1
  52.4400          1
  52.4600          3
  52.4800          0
  52.5000          3
  52.5200          1
  52.5400          2
  52.5600          2
  52.5800          0
  52.6000          2
  52.6200          0
  52.6400          0
  52.6600          0
  52.6800          2
  52.7000          1
  52.7200          7
  52.7400          2
  52.7600          2
  52.7800          4
  52.8000          0
  52.8200          1
  52.8400          2
  52.8600          3
  52.8800          1
  52.9000          4
  52.9200          3
  52.9400          2
  52.9600          4
  52.9800          2
  53.0000          1
  53.0200          3
  53.0400          1
  53.0600          6
  53.0800          9
  53.1000          1
  53.1200          1
  53.1400          0
  53.1600          2
  53.1800          4
  53.2000          4
  53.2200          4
  53.2400          4
  53.2600          0
  53.2800          4
  53.3000          3
  53.3200          4
  53.3400          1
  53.3600          0
  53.3800          3
  53.4000          2
  53.4200          4
  53.4400          2
  53.4600          2
  53.4800          3
  53.5000          0
  53.5200          4
  53.5400          5
  53.5600          3
  53.5800          4
  53.6000          3
  53.6200          2
  53.6400          5
  53.6600          1
  53.6800          2
  53.7000          2
  53.7200          3
  53.7400          3
  53.7600          2
  53.7800          3
  53.8000          4
  53.8200          3
  53.8400          5
  53.8600          3
  53.8800          0
  53.9000          3
  53.9200          0
  53.9400          6
  53.9600          2
  53.9800          1
  54.0000          2
  54.0200          1
  54.0400          2
  54.0600          0
  54.0800          3
  54.1000          2
  54.1200          0
  54.1400          5
  54.1600          2
  54.1800          1
  54.2000          1
  54.2200          3
  54.2400          2
  54.2600          1
  54.2800          2
  54.3000          6
  54.3200          2
  54.3400          3
  54.3600          2
  54.3800          1
  54.4000          2
  54.4200          4
  54.4400          3
  54.4600          2
  54.4800          1
  54.5000          1
  54.5200          4
  54.5400          2
  54.5600          3
  54.5800          1
  54.6000          1
  54.6200          1
  54.6400          2
  54.6600          1
  54.6800          2
  54.7000          4
  54.7200          2
  54.7400          3
  54.7600          6
  54.7800          2
  54.8000          3
  54.8200          6
  54.8400          3
  54.8600          1
  54.8800          4
  54.9000          1
  54.9200          1
  54.9400          0
  54.9600          4
  54.9800          2
  55.0000          2
  55.0200          3
  55.0400          3
  55.0600          3
  55.0800          4
  55.1000          2
  55.1200          7
  55.1400          3
  55.1600          5
  55.1800          3
  55.2000          2
  55.2200          1
  55.2400          2
  55.2600          1
  55.2800          4
  55.3000          3
  55.3200          0
  55.3400          1
  55.3600          2
  55.3800          2
  55.4000          2
  55.4200          0
  55.4400          2
  55.4600          1
  55.4800          2
  55.5000          4
  55.5200          2
  55.5400          3
  55.5600          1
  55.5800          1
  55.6000          5
  55.6200          2
  55.6400          3
  55.6600          1
  55.6800          1
  55.7000          3
  55.7200          2
  55.7400          1
  55.7600          5
  55.7800          3
  55.8000          1
  55.8200          3
  55.8400          2
  55.8600          2
  55.8800          1
  55.9000          2
  55.9200          3
  55.9400          1
  55.9600          4
  55.9800          3
  56.0000          2
  56.0200          3
  56.0400          1
  56.0600          3
  56.0800          2
  56.1000          3
  56.1200          0
  56.1400          3
  56.1600          3
  56.1800          3
  56.2000          2
  56.2200          3
  56.2400          2
  56.2600          3
  56.2800          2
  56.3000          1
  56.3200          5
  56.3400          2
  56.3600          1
  56.3800          0
  56.4000          7
  56.4200          4
  56.4400          2
  56.4600          2
  56.4800          4
  56.5000          4
  56.5200          1
  56.5400          0
  56.5600          2
  56.5800          4
  56.6000          0
  56.6200          5
  56.6400          2
  56.6600          1
  56.6800          3
  56.7000          2
  56.7200          0
  56.7400          2
  56.7600          2
  56.7800          4
  56.8000          1
  56.8200          0
  56.8400          0
  56.8600          6
  56.8800          1
  56.9000          5
  56.9200          3
  56.9400          5
  56.9600          3
  56.9800          3
  57.0000          4
  57.0200          1
  57.0400          3
  57.0600          4
  57.0800          4
  57.1000          4
  57.1200          2
  57.1400          1
  57.1600          3
  57.1800          2
  57.2000          3
  57.2200          3
  57.2400          2
  57.2600          2
  57.2800          2
  57.3000          3
  57.3200          1
  57.3400          3
  57.3600          4
  57.3800          1
  57.4000          2
  57.4200          2
  57.4400          0
  57.4600          2
  57.4800          4
  57.5000          1
  57.5200          0
  57.5400          1
  57.5600          4
  57.5800          1
  57.6000          1
  57.6200          1
  57.6400          3
  57.6600          2
  57.6800          4
  57.7000          1
  57.7200          3
  57.7400          1
  57.7600          1
  57.7800          3
  57.8000          3
  57.8200          3
  57.8400          1
  57.8600          2
  57.8800          2
  57.9000          2
  57.9200          1
  57.9400          1
  57.9600          2
  57.9800          3
  58.0000          3
  58.0200          6
  58.0400          1
  58.0600          2
  58.0800          0
  58.1000          1
  58.1200          3
  58.1400          2
  58.1600          0
  58.1800          2
  58.2000          3
  58.2200          3
  58.2400          1
  58.2600          2
  58.2800          3
  58.3000          2
  58.3200          0
  58.3400          2
  58.3600          3
  58.3800          3
  58.4000          2
  58.4200          2
  58.4400          0
  58.4600          3
  58.4800          7
  58.5000          2
  58.5200          0
  58.5400          0
  58.5600          4
  58.5800          2
  58.6000          3
  58.6200          2
  58.6400          4
  58.6600          5
  58.6800          1
  58.7000          4
  58.7200          2
  58.7400          2
  58.7600          5
  58.7800          2
  58.8000          0
  58.8200          2
  58.8400          2
  58.8600          2
  58.8800          1
  58.9000          2
  58.9200          2
  58.9400          4
  58.9600          3
  58.9800          1
  59.0000          0
  59.0200          2
  59.0400          4
  59.0600          1
  59.0800          3
  59.1000          2
  59.1200          2
  59.1400          3
  59.1600          1
  59.1800          2
  59.2000          4
  59.2200          1
  59.2400          2
  59.2600          2
  59.2800          4
  59.3000          4
  59.3200          1
  59.3400          1
  59.3600          1
  59.3800          2
  59.4000          2
  59.4200          1
  59.4400          3
  59.4600          0
  59.4800          3
  59.5000          1
  59.5200          1
  59.5400          3
  59.5600          2
  59.5800          4
  59.6000          3
  59.6200          2
  59.6400          2
  59.6600          0
  59.6800          2
  59.7000          0
  59.7200          2
  59.7400          1
  59.7600          1
  59.7800          4
  59.8000          4
  59.8200          3
  59.8400          1
  59.8600          0
  59.8800          0
  59.9000          1
  59.9200          1
  59.9400          1
  59.9600          2
  59.9800          1
  60.0000          6
  60.0200          2
  60.0400          0
  60.0600          0
  60.0800          3
  60.1000          0
  60.1200          1
  60.1400          2
  60.1600          1
  60.1800          1
  60.2000          4
  60.2200          3
  60.2400          3
  60.2600          3
  60.2800          1
  60.3000          1
  60.3200          2
  60.3400          1
  60.3600          1
  60.3800          3
  60.4000          2
  60.4200          1
  60.4400          3
  60.4600          4
  60.4800          1
  60.5000          1
  60.5200          2
  60.5400          1
  60.5600          1
  60.5800          2
  60.6000          1
  60.6200          4
  60.6400          1
  60.6600          1
  60.6800          1
  60.7000          2
  60.7200          3
  60.7400          1
  60.7600          2
  60.7800          2
  60.8000          1
  60.8200          3
  60.8400          1
  60.8600          2
  60.8800          0
  60.9000          3
  60.9200          2
  60.9400          2
  60.9600          0
  60.9800          1
  61.0000          0
  61.0200          2
  61.0400          1
  61.0600          2
  61.0800          2
  61.1000          3
  61.1200          5
  61.1400          1
  61.1600          2
  61.1800          3
  61.2000          2
  61.2200          0
  61.2400          2
  61.2600          8
  61.2800          1
  61.3000          1
  61.3200          4
  61.3400          2
  61.3600          3
  61.3800          2
  61.4000          5
  61.4200          7
  61.4400          2
  61.4600          2
  61.4800          1
  61.5000          3
  61.5200          2
  61.5400          5
  61.5600          0
  61.5800          1
  61.6000          2
  61.6200          3
  61.6400          2
  61.6600          3
  61.6800          5
  61.7000          4
  61.7200          0
  61.7400          1
  61.7600          3
  61.7800          0
  61.8000          4
  61.8200          0
  61.8400          4
  61.8600          2
  61.8800          3
  61.9000          2
  61.9200          0
  61.9400          4
  61.9600          2
  61.9800          4
  62.0000          3
  62.0200          2
  62.0400          3
  62.0600          0
  62.0800          2
  62.1000          1
  62.1200          0
  62.1400          3
  62.1600          1
  62.1800          3
  62.2000          3
  62.2200          4
  62.2400          1
  62.2600          2
  62.2800          2
  62.3000          3
  62.3200          1
  62.3400          1
  62.3600          2
  62.3800          3
  62.4000          2
  62.4200          1
  62.4400          0
  62.4600          5
  62.4800          4
  62.5000          1
  62.5200          2
  62.5400          2
  62.5600          2
  62.5800          3
  62.6000          3
  62.6200          5
  62.6400          2
  62.6600          0
  62.6800          1
  62.7000          1
  62.7200          3
  62.7400          7
  62.7600          1
  62.7800          0
  62.8000          2
  62.8200          1
  62.8400          3
  62.8600          1
  62.8800          2
  62.9000          2
  62.9200          4
  62.9400          2
  62.9600          2
  62.9800          0
  63.0000          4
  63.0200          1
  63.0400          2
  63.0600          4
  63.0800          4
  63.1000          2
  63.1200          2
  63.1400          1
  63.1600          1
  63.1800          4
  63.2000          4
  63.2200          2
  63.2400          1
  63.2600          4
  63.2800          0
  63.3000          2
  63.3200          1
  63.3400          5
  63.3600          1
  63.3800          1
  63.4000          6
  63.4200          1
  63.4400          1
  63.4600          7
  63.4800          0
  63.5000          1
  63.5200          2
  63.5400          0
  63.5600          0
  63.5800          2
  63.6000          2
  63.6200          3
  63.6400          0
  63.6600          3
  63.6800          3
  63.7000          2
  63.7200          0
  63.7400          0
  63.7600          1
  63.7800          1
  63.8000          3
  63.8200          4
  63.8400          2
  63.8600          5
  63.8800          2
  63.9000          1
  63.9200          2
  63.9400          4
  63.9600          2
  63.9800          3
  64.0000          1
  64.0200          1
  64.0400          3
  64.0600          6
  64.0800          2
  64.1000          5
  64.1200          1
  64.1400          2
  64.1600          2
  64.1800          2
  64.2000          3
  64.2200          5
  64.2400          8
  64.2600          8
  64.2800          6
  64.3000          7
  64.3200          3
  64.3400          3
  64.3600         13
  64.3800          4
  64.4000         10
  64.4200          6
  64.4400          5
  64.4600          7
  64.4800          9
  64.5000          6
  64.5200          8
  64.5400          6
  64.5600         10
  64.5800          3
  64.6000          1
  64.6200          6
  64.6400          6
  64.6600          7
  64.6800          3
  64.7000          4
  64.7200          2
  64.7400          1
  64.7600          6
  64.7800          6
  64.8000          1
  64.8200          4
  64.8400          3
  64.8600          1
  64.8800          5
  64.9000          1
  64.9200          4
  64.9400          2
  64.9600          3
  64.9800          4
  65.0000          2
  65.0200          1
  65.0400          0
  65.0600          1
  65.0800          3
  65.1000          3
  65.1200          2
  65.1400          3
  65.1600          3
  65.1800          3
  65.2000          2
  65.2200          1
  65.2400          5
  65.2600          3
  65.2800          1
  65.3000          2
  65.3200          3
  65.3400          6
  65.3600          1
  65.3800          2
  65.4000          4
  65.4200          2
  65.4400          5
  65.4600          1
  65.4800          2
  65.5000          1
  65.5200          3
  65.5400          3
  65.5600          0
  65.5800          4
  65.6000          4
  65.6200          3
  65.6400          2
  65.6600          5
  65.6800          1
  65.7000          3
  65.7200          2
  65.7400          3
  65.7600          1
  65.7800          3
  65.8000          2
  65.8200          1
  65.8400          0
  65.8600          3
  65.8800          5
  65.9000          5
  65.9200          3
  65.9400          0
  65.9600          3
  65.9800          3
  66.0000          2
  66.0200          3
  66.0400          5
  66.0600          1
  66.0800          3
  66.1000          3
  66.1200          2
  66.1400          6
  66.1600          0
  66.1800          2
  66.2000          2
  66.2200          2
  66.2400          0
  66.2600          5
  66.2800          2
  66.3000          3
  66.3200          2
  66.3400          2
  66.3600          7
  66.3800          1
  66.4000          2
  66.4200          3
  66.4400          1
  66.4600          1
  66.4800          2
  66.5000          1
  66.5200          2
  66.5400          4
  66.5600          3
  66.5800          3
  66.6000          1
  66.6200          0
  66.6400          3
  66.6600          4
  66.6800          1
  66.7000          4
  66.7200          4
  66.7400          0
  66.7600          3
  66.7800          0
  66.8000          3
  66.8200          3
  66.8400          2
  66.8600          1
  66.8800          1
  66.9000          3
  66.9200          4
  66.9400          1
  66.9600          1
  66.9800          1
  67.0000          1
  67.0200          1
  67.0400          1
  67.0600          2
  67.0800          2
  67.1000          1
  67.1200          3
  67.1400          2
  67.1600          0
  67.1800          4
  67.2000          3
  67.2200          0
  67.2400          1
  67.2600          3
  67.2800          2
  67.3000          1
  67.3200          3
  67.3400          3
  67.3600          4
  67.3800          4
  67.4000          1
  67.4200          3
  67.4400          3
  67.4600          3
  67.4800          3
  67.5000          2
  67.5200          2
  67.5400          1
  67.5600          2
  67.5800          1
  67.6000          1
  67.6200          3
  67.6400          2
  67.6600          2
  67.6800          1
  67.7000          4
  67.7200          2
  67.7400          0
  67.7600          1
  67.7800          0
  67.8000          3
  67.8200          0
  67.8400          0
  67.8600          2
  67.8800          3
  67.9000          2
  67.9200          1
  67.9400          4
  67.9600          3
  67.9800          1
  68.0000          2
  68.0200          2
  68.0400          5
  68.0600          2
  68.0800          3
  68.1000          2
  68.1200          2
  68.1400          4
  68.1600          1
  68.1800          0
  68.2000          2
  68.2200          3
  68.2400          1
  68.2600          3
  68.2800          5
  68.3000          3
  68.3200          1
  68.3400          1
  68.3600          0
  68.3800          2
  68.4000          3
  68.4200          2
  68.4400          2
  68.4600          3
  68.4800          1
  68.5000          3
  68.5200          3
  68.5400          3
  68.5600          1
  68.5800          4
  68.6000          2
  68.6200          3
  68.6400          5
  68.6600          4
  68.6800          4
  68.7000          0
  68.7200          1
  68.7400          3
  68.7600          2
  68.7800          1
  68.8000          2
  68.8200          1
  68.8400          0
  68.8600          3
  68.8800          2
  68.9000          3
  68.9200          3
  68.9400          2
  68.9600          0
  68.9800          5
  69.0000          4
  69.0200          2
  69.0400          2
  69.0600          1
  69.0800          0
  69.1000          3
  69.1200          3
  69.1400          5
  69.1600          2
  69.1800          0
  69.2000          4
  69.2200          2
  69.2400          0
  69.2600          1
  69.2800          0
  69.3000          2
  69.3200          2
  69.3400          0
  69.3600          3
  69.3800          4
  69.4000          1
  69.4200          0
  69.4400          0
  69.4600          1
  69.4800          2
  69.5000          0
  69.5200          1
  69.5400          2
  69.5600          1
  69.5800          2
  69.6000          1
  69.6200          1
  69.6400          3
  69.6600          0
  69.6800          3
  69.7000          4
  69.7200          4
  69.7400          2
  69.7600          0
  69.7800          3
  69.8000          1
  69.8200          3
  69.8400          2
  69.8600          0
  69.8800          0
  69.9000          1
  69.9200          0
  69.9400          0
  69.9600          1
  69.9800          0
  70.0000          2
  70.0200          1
  70.0400          1
  70.0600          0
  70.0800          2
  70.1000          1
  70.1200          1
  70.1400          5
  70.1600          1
  70.1800          1
  70.2000          1
  70.2200          4
  70.2400          1
  70.2600          4
  70.2800          3
  70.3000          0
  70.3200          4
  70.3400          0
  70.3600          1
  70.3800          2
  70.4000          0
  70.4200          2
  70.4400          2
  70.4600          2
  70.4800          2
  70.5000          4
  70.5200          1
  70.5400          1
  70.5600          0
  70.5800          5
  70.6000          6
  70.6200          0
  70.6400          3
  70.6600          1
  70.6800          1
  70.7000          2
  70.7200          1
  70.7400          4
  70.7600          0
  70.7800          1
  70.8000          3
  70.8200          0
  70.8400          5
  70.8600          3
  70.8800          5
  70.9000          1
  70.9200          1
  70.9400          3
  70.9600          3
  70.9800          3
  71.0000          3
  71.0200          2
  71.0400          1
  71.0600          1
  71.0800          0
  71.1000          2
  71.1200          1
  71.1400          2
  71.1600          1
  71.1800          1
  71.2000          2
  71.2200          3
  71.2400          3
  71.2600          2
  71.2800          3
  71.3000          6
  71.3200          3
  71.3400          4
  71.3600          1
  71.3800          3
  71.4000          2
  71.4200          2
  71.4400          2
  71.4600          0
  71.4800          3
  71.5000          4
  71.5200          2
  71.5400          5
  71.5600          4
  71.5800          1
  71.6000          2
  71.6200          2
  71.6400          2
  71.6600          4
  71.6800          2
  71.7000          1
  71.7200          5
  71.7400          1
  71.7600          3
  71.7800          1
  71.8000          2
  71.8200          3
  71.8400          3
  71.8600          0
  71.8800          1
  71.9000          1
  71.9200          6
  71.9400          4
  71.9600          3
  71.9800          6
  72.0000          2
  72.0200          3
  72.0400          2
  72.0600          1
  72.0800          4
  72.1000          1
  72.1200          2
  72.1400          3
  72.1600          5
  72.1800          1
  72.2000          2
  72.2200          4
  72.2400          2
  72.2600          2
  72.2800          2
  72.3000          2
  72.3200          0
  72.3400          3
  72.3600          3
  72.3800          1
  72.4000          0
  72.4200          2
  72.4400          3
  72.4600          3
  72.4800          5
  72.5000          6
  72.5200          0
  72.5400          2
  72.5600          3
  72.5800          0
  72.6000          1
  72.6200          2
  72.6400          3
  72.6600          3
  72.6800          2
  72.7000          3
  72.7200          3
  72.7400          3
  72.7600          1
  72.7800          1
  72.8000          3
  72.8200          3
  72.8400          2
  72.8600          1
  72.8800          1
  72.9000          3
  72.9200          5
  72.9400          1
  72.9600          3
  72.9800          3
  73.0000          2
  73.0200          0
  73.0400          1
  73.0600          2
  73.0800          0
  73.1000          3
  73.1200          2
  73.1400          1
  73.1600          3
  73.1800          2
  73.2000          0
  73.2200          2
  73.2400          0
  73.2600          3
  73.2800          2
  73.3000          0
  73.3200          2
  73.3400          4
  73.3600          2
  73.3800          1
  73.4000          3
  73.4200          3
  73.4400          3
  73.4600          2
  73.4800          3
  73.5000          1
  73.5200          1
  73.5400          0
  73.5600          2
  73.5800          4
  73.6000          1
  73.6200          1
  73.6400          2
  73.6600          2
  73.6800          3
  73.7000          6
  73.7200          4
  73.7400          0
  73.7600          4
  73.7800          4
  73.8000          6
  73.8200          3
  73.8400          2
  73.8600          1
  73.8800          2
  73.9000          4
  73.9200          4
  73.9400          1
  73.9600          0
  73.9800          1
  74.0000          2
  74.0200          3
  74.0400          4
  74.0600          2
  74.0800          1
  74.1000          4
  74.1200          1
  74.1400          2
  74.1600          1
  74.1800          2
  74.2000          0
  74.2200          1
  74.2400          2
  74.2600          3
  74.2800          1
  74.3000          1
  74.3200          2
  74.3400          4
  74.3600          1
  74.3800          1
  74.4000          1
  74.4200          1
  74.4400          0
  74.4600          3
  74.4800          1
  74.5000          0
  74.5200          5
  74.5400          3
  74.5600          1
  74.5800          1
  74.6000          0
  74.6200          0
  74.6400          3
  74.6600          1
  74.6800          4
  74.7000          3
  74.7200          1
  74.7400          3
  74.7600          0
  74.7800          0
  74.8000          1
  74.8200          2
  74.8400          3
  74.8600          1
  74.8800          0
  74.9000          1
  74.9200          2
  74.9400          0
  74.9600          0
  74.9800          1
  75.0000          6
  75.0200          1
  75.0400          0
  75.0600          3
  75.0800          2
  75.1000          4
  75.1200          3
  75.1400          5
  75.1600          4
  75.1800          0
  75.2000          3
  75.2200          1
  75.2400          5
  75.2600          2
  75.2800          3
  75.3000          3
  75.3200          4
  75.3400          2
  75.3600          0
  75.3800          1
  75.4000          1
  75.4200          2
  75.4400          2
  75.4600          1
  75.4800          1
  75.5000          3
  75.5200          0
  75.5400          3
  75.5600          1
  75.5800          2
  75.6000          3
  75.6200          1
  75.6400          2
  75.6600          1
  75.6800          3
  75.7000          5
  75.7200          3
  75.7400          5
  75.7600          3
  75.7800          5
  75.8000          3
  75.8200          2
  75.8400          1
  75.8600          5
  75.8800          4
  75.9000          2
  75.9200          1
  75.9400          3
  75.9600          2
  75.9800          1
  76.0000          2
  76.0200          1
  76.0400          2
  76.0600          2
  76.0800          0
  76.1000          3
  76.1200          1
  76.1400          1
  76.1600          2
  76.1800          0
  76.2000          4
  76.2200          0
  76.2400          3
  76.2600          1
  76.2800          2
  76.3000          2
  76.3200          1
  76.3400          4
  76.3600          2
  76.3800          1
  76.4000          2
  76.4200          3
  76.4400          3
  76.4600          2
  76.4800          1
  76.5000          2
  76.5200          7
  76.5400          1
  76.5600          1
  76.5800          0
  76.6000          3
  76.6200          3
  76.6400          1
  76.6600          2
  76.6800          0
  76.7000          2
  76.7200          3
  76.7400          0
  76.7600          1
  76.7800          3
  76.8000          1
  76.8200          2
  76.8400          1
  76.8600          5
  76.8800          3
  76.9000          2
  76.9200          2
  76.9400          3
  76.9600          2
  76.9800          1
  77.0000          2
  77.0200          4
  77.0400          2
  77.0600          5
  77.0800          2
  77.1000          6
  77.1200          3
  77.1400          5
  77.1600          3
  77.1800          4
  77.2000          3
  77.2200          7
  77.2400          5
  77.2600          2
  77.2800          9
  77.3000          7
  77.3200          4
  77.3400         10
  77.3600         10
  77.3800         10
  77.4000          5
  77.4200         10
  77.4400          8
  77.4600          5
  77.4800         10
  77.5000          5
  77.5200          5
  77.5400          6
  77.5600          4
  77.5800          5
  77.6000          7
  77.6200          6
  77.6400          5
  77.6600          2
  77.6800          6
  77.7000          7
  77.7200          4
  77.7400          9
  77.7600         10
  77.7800          2
  77.8000          1
  77.8200          6
  77.8400          4
  77.8600          4
  77.8800          7
  77.9000          4
  77.9200          6
  77.9400          6
  77.9600          3
  77.9800          2
  78.0000          2
  78.0200          0
  78.0400          4
  78.0600          4
  78.0800          2
  78.1000          5
  78.1200          6
  78.1400          2
  78.1600          3
  78.1800          4
  78.2000          1
  78.2200          1
  78.2400          2
  78.2600          2
  78.2800          4
  78.3000          4
  78.3200          1
  78.3400          3
  78.3600          1
  78.3800          3
  78.4000          2
  78.4200          1
  78.4400          4
  78.4600          2
  78.4800          1
  78.5000          3
  78.5200          3
  78.5400          1
  78.5600          0
  78.5800          3
  78.6000          2
  78.6200          4
  78.6400          2
  78.6600          3
  78.6800          0
  78.7000          3
  78.7200          1
  78.7400          3
  78.7600          0
  78.7800          1
  78.8000          4
  78.8200          1
  78.8400          0
  78.8600          3
  78.8800          3
  78.9000          1
  78.9200          4
  78.9400          2
  78.9600          1
  78.9800          2
  79.0000          4
  79.0200          1
  79.0400          1
  79.0600          3
  79.0800          3
  79.1000          0
  79.1200          1
  79.1400          2
  79.1600          7
  79.1800          6
  79.2000          6
  79.2200          2
  79.2400          1
  79.2600          1
  79.2800          1
  79.3000          1
  79.3200          2
  79.3400          1
  79.3600          1
  79.3800          1
  79.4000          2
  79.4200          3
  79.4400          3
  79.4600          4
  79.4800          5
  79.5000          2
  79.5200          0
  79.5400          1
  79.5600          4
  79.5800          2
  79.6000          3
  79.6200          2
  79.6400          0
  79.6600          2
  79.6800          0
  79.7000          2
  79.7200          2
  79.7400          0
  79.7600          3
  79.7800          3
  79.8000          1
  79.8200          2
  79.8400          3
  79.8600          0
  79.8800          6
  79.9000          1
  79.9200          0
  79.9400          0
  79.9600          2
  79.9800          0
  80.0000          0
  80.0200          2
  80.0400          3
  80.0600          2
  80.0800          2
  80.1000          1
  80.1200          2
  80.1400          1
  80.1600          1
  80.1800          3
  80.2000          1
  80.2200          1
  80.2400          2
  80.2600          2
  80.2800          3
  80.3000          2
  80.3200          2
  80.3400          1
  80.3600          5
  80.3800          2
  80.4000          5
  80.4200          3
  80.4400          0
  80.4600          5
  80.4800          2
  80.5000          2
  80.5200          2
  80.5400          1
  80.5600          1
  80.5800          1
  80.6000          0
  80.6200          2
  80.6400          2
  80.6600          1
  80.6800          2
  80.7000          1
  80.7200          2
  80.7400          4
  80.7600          5
  80.7800          2
  80.8000          3
  80.8200          2
  80.8400          0
  80.8600          1
  80.8800          3
  80.9000          0
  80.9200          1
  80.9400          0
  80.9600          1
  80.9800          2
  81.0000          2
  81.0200          5
  81.0400          1
  81.0600          1
  81.0800          4
  81.1000          4
  81.1200          1
  81.1400          2
  81.1600          0
  81.1800          2
  81.2000          4
  81.2200          1
  81.2400          7
  81.2600          2
  81.2800          2
  81.3000          2
  81.3200          3
  81.3400          2
  81.3600          2
  81.3800          5
  81.4000          4
  81.4200          4
  81.4400          3
  81.4600          1
  81.4800          2
  81.5000          2
  81.5200          7
  81.5400          4
  81.5600          3
  81.5800          3
  81.6000          5
  81.6200          5
  81.6400          2
  81.6600          1
  81.6800          2
  81.7000          3
  81.7200          3
  81.7400          3
  81.7600          5
  81.7800          6
  81.8000          2
  81.8200          2
  81.8400          4
  81.8600          5
  81.8800          2
  81.9000          2
  81.9200          1
  81.9400          2
  81.9600          2
  81.9800          4
  82.0000          4
  82.0200          4
  82.0400          2
  82.0600          2
  82.0800          4
  82.1000          7
  82.1200          3
  82.1400          2
  82.1600          0
  82.1800          4
  82.2000          4
  82.2200          2
  82.2400          5
  82.2600          4
  82.2800          1
  82.3000          4
  82.3200          2
  82.3400          2
  82.3600          1
  82.3800          4
  82.4000          3
  82.4200          1
  82.4400          4
  82.4600          4
  82.4800          3
  82.5000          2
  82.5200          3
  82.5400          2
  82.5600          7
  82.5800          2
  82.6000          2
  82.6200          2
  82.6400          1
  82.6600          1
  82.6800          1
  82.7000          2
  82.7200          1
  82.7400          4
  82.7600          4
  82.7800          2
  82.8000          1
  82.8200          2
  82.8400          1
  82.8600          2
  82.8800          2
  82.9000          3
  82.9200          1
  82.9400          4
  82.9600          3
  82.9800          2
  83.0000          2
  83.0200          2
  83.0400          0
  83.0600          1
  83.0800          0
  83.1000          2
  83.1200          4
  83.1400          1
  83.1600          1
  83.1800          2
  83.2000          3
  83.2200          1
  83.2400          0
  83.2600          1
  83.2800          0
  83.3000          3
  83.3200          1
  83.3400          2
  83.3600          2
  83.3800          3
  83.4000          5
  83.4200          2
  83.4400          5
  83.4600          1
  83.4800          2
  83.5000          1
  83.5200          2
  83.5400          0
  83.5600          1
  83.5800          5
  83.6000          4
  83.6200          1
  83.6400          6
  83.6600          2
  83.6800          1
  83.7000          2
  83.7200          3
  83.7400          2
  83.7600          2
  83.7800          3
  83.8000          4
  83.8200          7
  83.8400          2
  83.8600          2
  83.8800          1
  83.9000          2
  83.9200          0
  83.9400          3
  83.9600          0
  83.9800          5
  84.0000          2
  84.0200          2
  84.0400          2
  84.0600          1
  84.0800          0
  84.1000          3
  84.1200          2
  84.1400          3
  84.1600          0
  84.1800          5
  84.2000          2
  84.2200          2
  84.2400          2
  84.2600          1
  84.2800          3
  84.3000          2
  84.3200          0
  84.3400          3
  84.3600          0
  84.3800          0
  84.4000          2
  84.4200          3
  84.4400          2
  84.4600          2
  84.4800          4
  84.5000          2
  84.5200          1
  84.5400          2
  84.5600          5
  84.5800          1
  84.6000          0
  84.6200          3
  84.6400          3
  84.6600          3
  84.6800          1
  84.7000          2
  84.7200          1
  84.7400          2
  84.7600          1
  84.7800          2
  84.8000          0
  84.8200          4
  84.8400          1
  84.8600          4
  84.8800          3
  84.9000          2
  84.9200          5
  84.9400          4
  84.9600          1
  84.9800          3
  85.0000          2
  85.0200          3
  85.0400          3
  85.0600          1
  85.0800          1
  85.1000          3
  85.1200          4
  85.1400          1
  85.1600          2
  85.1800          0
  85.2000          5
  85.2200          0
  85.2400          2
  85.2600          2
  85.2800          0
  85.3000          1
  85.3200          2
  85.3400          5
  85.3600          1
  85.3800          4
  85.4000          6
  85.4200          2
  85.4400          1
  85.4600          2
  85.4800          1
  85.5000          3
  85.5200          5
  85.5400          5
  85.5600          2
  85.5800          3
  85.6000          0
  85.6200          3
  85.6400          2
  85.6600          0
  85.6800          3
  85.7000          0
  85.7200          3
  85.7400          5
  85.7600          1
  85.7800          1
  85.8000          0
  85.8200          1
  85.8400          0
  85.8600          2
  85.8800          2
  85.9000          3
  85.9200          0
  85.9400          4
  85.9600          5
  85.9800          2
  86.0000          4
  86.0200          3
  86.0400          4
  86.0600          3
  86.0800          3
  86.1000          1
  86.1200          1
  86.1400          3
  86.1600          1
  86.1800          1
  86.2000          3
  86.2200          3
  86.2400          3
  86.2600          0
  86.2800          2
  86.3000          3
  86.3200          0
  86.3400          5
  86.3600          2
  86.3800          1
  86.4000          1
  86.4200          1
  86.4400          0
  86.4600          4
  86.4800          0
  86.5000          3
  86.5200          2
  86.5400          3
  86.5600          0
  86.5800          3
  86.6000          2
  86.6200          0
  86.6400          2
  86.6600          4
  86.6800          4
  86.7000          1
  86.7200          2
  86.7400          2
  86.7600          0
  86.7800          1
  86.8000          2
  86.8200          2
  86.8400          2
  86.8600          0
  86.8800          2
  86.9000          2
  86.9200          7
  86.9400          3
  86.9600          2
  86.9800          3
  87.0000          3
  87.0200          4
  87.0400          1
  87.0600          0
  87.0800          1
  87.1000          4
  87.1200          1
  87.1400          0
  87.1600          0
  87.1800          2
  87.2000          2
  87.2200          4
  87.2400          0
  87.2600          3
  87.2800          1
  87.3000          1
  87.3200          2
  87.3400          1
  87.3600          1
  87.3800          5
  87.4000          2
  87.4200          0
  87.4400          2
  87.4600          2
  87.4800          2
  87.5000          0
  87.5200          2
  87.5400          2
  87.5600          2
  87.5800          2
  87.6000          2
  87.6200          6
  87.6400          0
  87.6600          3
  87.6800          2
  87.7000          0
  87.7200          2
  87.7400          4
  87.7600          4
  87.7800          0
  87.8000          4
  87.8200          1
  87.8400          5
  87.8600          5
  87.8800          1
  87.9000          1
  87.9200          1
  87.9400          2
  87.9600          5
  87.9800          1
  88.0000          2
  88.0200          5
  88.0400          2
  88.0600          0
  88.0800          1
  88.1000          2
  88.1200          1
  88.1400          2
  88.1600          2
  88.1800          1
  88.2000          1
  88.2200          1
  88.2400          0
  88.2600          2
  88.2800          1
  88.3000          1
  88.3200          3
  88.3400          3
  88.3600          5
  88.3800          1
  88.4000          0
  88.4200          0
  88.4400          0
  88.4600          0
  88.4800          4
  88.5000          1
  88.5200          3
  88.5400          1
  88.5600          1
  88.5800          2
  88.6000          5
  88.6200          4
  88.6400          1
  88.6600          4
  88.6800          2
  88.7000          2
  88.7200          6
  88.7400          1
  88.7600          0
  88.7800          1
  88.8000          0
  88.8200          3
  88.8400          2
  88.8600          5
  88.8800          2
  88.9000          1
  88.9200          0
  88.9400          4
  88.9600          2
  88.9800          1
  89.0000          3
  89.0200          2
  89.0400          4
  89.0600          0
  89.0800          4
  89.1000          1
  89.1200          3
  89.1400          5
  89.1600          3
  89.1800          2
  89.2000          2
  89.2200          2
  89.2400          1
  89.2600          1
  89.2800          2
  89.3000          1
  89.3200          3
  89.3400          2
  89.3600          3
  89.3800          0
  89.4000          4
  89.4200          2
  89.4400          3
  89.4600          1
  89.4800          5
  89.5000          2
  89.5200          3
  89.5400          3
  89.5600          1
  89.5800          1
  89.6000          0
  89.6200          6
  89.6400          1
  89.6600          0
  89.6800          3
  89.7000          2
  89.7200          2
  89.7400          4
  89.7600          1
  89.7800          3
  89.8000          1
  89.8200          2
  89.8400          3
  89.8600          1
  89.8800          0
  89.9000          4
  89.9200          1
  89.9400          1
  89.9600          1
  89.9800          1
  90.0000          3
  90.0200          1
  90.0400          1
  90.0600          2
  90.0800          1
  90.1000          5
  90.1200          0
  90.1400          1
  90.1600          2
  90.1800          6
  90.2000          6
  90.2200          3
  90.2400          3
  90.2600          3
  90.2800          0
  90.3000          1
  90.3200          1
  90.3400          3
  90.3600          3
  90.3800          5
  90.4000          1
  90.4200          2
  90.4400          1
  90.4600          2
  90.4800          1
  90.5000          2
  90.5200          3
  90.5400          0
  90.5600          4
  90.5800          1
  90.6000          2
  90.6200          0
  90.6400          4
  90.6600          1
  90.6800          0
  90.7000          1
  90.7200          2
  90.7400          2
  90.7600          1
  90.7800          1
  90.8000          2
  90.8200          0
  90.8400          4
  90.8600          5
  90.8800          2
  90.9000          2
  90.9200          4
  90.9400          1
  90.9600          2
  90.9800          1
  91.0000          1
  91.0200          1
  91.0400          4
  91.0600          3
  91.0800          2
  91.1000          1
  91.1200          2
  91.1400          1
  91.1600          2
  91.1800          3
  91.2000          3
  91.2200          3
  91.2400          0
  91.2600          5
  91.2800          0
  91.3000          0
  91.3200          2
  91.3400          1
  91.3600          3
  91.3800          2
  91.4000          3
  91.4200          4
  91.4400          6
  91.4600          2
  91.4800          3
  91.5000          1
  91.5200          3
  91.5400          2
  91.5600          2
  91.5800          4
  91.6000          2
  91.6200          3
  91.6400          2
  91.6600          2
  91.6800          2
  91.7000          6
  91.7200          1
  91.7400          2
  91.7600          0
  91.7800          2
  91.8000          1
  91.8200          0
  91.8400          3
  91.8600          0
  91.8800          5
  91.9000          2
  91.9200          1
  91.9400          1
  91.9600          2
  91.9800          5
  92.0000          1
  92.0200          0
  92.0400          5
  92.0600          6
  92.0800          1
  92.1000          2
  92.1200          0
  92.1400          0
  92.1600          2
  92.1800          3
  92.2000          0
  92.2200          0
  92.2400          2
  92.2600          4
  92.2800          2
  92.3000          3
  92.3200          3
  92.3400          2
  92.3600          3
  92.3800          3
  92.4000          3
  92.4200          3
  92.4400          3
  92.4600          2
  92.4800          3
  92.5000          3
  92.5200          2
  92.5400          2
  92.5600          2
  92.5800          1
  92.6000          3
  92.6200          3
  92.6400          0
  92.6600          2
  92.6800          2
  92.7000          2
  92.7200          0
  92.7400          1
  92.7600          3
  92.7800          3
  92.8000          1
  92.8200          2
  92.8400          0
  92.8600          3
  92.8800          0
  92.9000          2
  92.9200          1
  92.9400          2
  92.9600          1
  92.9800          3
  93.0000          4
  93.0200          2
  93.0400          2
  93.0600          0
  93.0800          2
  93.1000          1
  93.1200          3
  93.1400          0
  93.1600          1
  93.1800          4
  93.2000          2
  93.2200          1
  93.2400          4
  93.2600          1
  93.2800          0
  93.3000          1
  93.3200          3
  93.3400          4
  93.3600          3
  93.3800          2
  93.4000          1
  93.4200          2
  93.4400          1
  93.4600          4
  93.4800          7
  93.5000          0
  93.5200          2
  93.5400          1
  93.5600          0
  93.5800          3
  93.6000          2
  93.6200          2
  93.6400          0
  93.6600          2
  93.6800          1
  93.7000          3
  93.7200          2
  93.7400          2
  93.7600          4
  93.7800          2
  93.8000          3
  93.8200          2
  93.8400          4
  93.8600          1
  93.8800          1
  93.9000          1
  93.9200          3
  93.9400          2
  93.9600          2
  93.9800          4
  94.0000          0
  94.0200          0
  94.0400          0
  94.0600          2
  94.0800          4
  94.1000          1
  94.1200          1
  94.1400          2
  94.1600          1
  94.1800          1
  94.2000          1
  94.2200          0
  94.2400          2
  94.2600          7
  94.2800          0
  94.3000          0
  94.3200          1
  94.3400          3
  94.3600          1
  94.3800          4
  94.4000          1
  94.4200          1
  94.4400          3
  94.4600          3
  94.4800          1
  94.5000          3
  94.5200          2
  94.5400          2
  94.5600          6
  94.5800          2
  94.6000          0
  94.6200          3
  94.6400          5
  94.6600          2
  94.6800          0
  94.7000          1
  94.7200          2
  94.7400          3
  94.7600          3
  94.7800          2
  94.8000          2
  94.8200          1
  94.8400          1
  94.8600          3
  94.8800          4
  94.9000          4
  94.9200          5
  94.9400          5
  94.9600          1
  94.9800          2
  95.0000          1
  95.0200          4
  95.0400          2
  95.0600          0
  95.0800          3
  95.1000          4
  95.1200          2
  95.1400          2
  95.1600          3
  95.1800          2
  95.2000          2
  95.2200          1
  95.2400          5
  95.2600          2
  95.2800          2
  95.3000          3
  95.3200          0
  95.3400          2
  95.3600          3
  95.3800          0
  95.4000          1
  95.4200          6
  95.4400          1
  95.4600          3
  95.4800          7
  95.5000          2
  95.5200          1
  95.5400          3
  95.5600          3
  95.5800          3
  95.6000          3
  95.6200          2
  95.6400          1
  95.6600          4
  95.6800          2
  95.7000          1
  95.7200          0
  95.7400          5
  95.7600          2
  95.7800          2
  95.8000          1
  95.8200          0
  95.8400          1
  95.8600          4
  95.8800          3
  95.9000          2
  95.9200          3
  95.9400          1
  95.9600          2
  95.9800          2
  96.0000          0
  96.0200          1
  96.0400          3
  96.0600          1
  96.0800          3
  96.1000          1
  96.1200          2
  96.1400          1
  96.1600          0
  96.1800          5
  96.2000          2
  96.2200          4
  96.2400          3
  96.2600          3
  96.2800          2
  96.3000          2
  96.3200          2
  96.3400          2
  96.3600          1
  96.3800          4
  96.4000          3
  96.4200          5
  96.4400          4
  96.4600          3
  96.4800          3
  96.5000          4
  96.5200          2
  96.5400          0
  96.5600          3
  96.5800          1
  96.6000          1
  96.6200          1
  96.6400          0
  96.6600          3
  96.6800          1
  96.7000          2
  96.7200          1
  96.7400          2
  96.7600          5
  96.7800          3
  96.8000          1
  96.8200          1
  96.8400          1
  96.8600          0
  96.8800          2
  96.9000          2
  96.9200          2
  96.9400          3
  96.9600          2
  96.9800          1
  97.0000          2
  97.0200          3
  97.0400          2
  97.0600          1
  97.0800          3
  97.1000          1
  97.1200          3
  97.1400          7
  97.1600          3
  97.1800          3
  97.2000          2
  97.2200          1
  97.2400          1
  97.2600          2
  97.2800          2
  97.3000          1
  97.3200          1
  97.3400          1
  97.3600          5
  97.3800          1
  97.4000          1
  97.4200          3
  97.4400          1
  97.4600          2
  97.4800          2
  97.5000          1
  97.5200          4
  97.5400          2
  97.5600          0
  97.5800          2
  97.6000          1
  97.6200          2
  97.6400          3
  97.6600          3
  97.6800          1
  97.7000          3
  97.7200          4
  97.7400          3
  97.7600          6
  97.7800          3
  97.8000          4
  97.8200          4
  97.8400          1
  97.8600          4
  97.8800          1
  97.9000          3
  97.9200          2
  97.9400          2
  97.9600          5
  97.9800          5
  98.0000          3
  98.0200          7
  98.0400          2
  98.0600          3
  98.0800          1
  98.1000          4
  98.1200          2
  98.1400          2
  98.1600          1
  98.1800          3
  98.2000          0
  98.2200          2
  98.2400          5
  98.2600          1
  98.2800          2
  98.3000          1
  98.3200          4
  98.3400          1
  98.3600          5
  98.3800          5
  98.4000          3
  98.4200          1
  98.4400          1
  98.4600          2
  98.4800          2
  98.5000          4
  98.5200          2
  98.5400          6
  98.5600          3
  98.5800          3
  98.6000          4
  98.6200          2
  98.6400          3
  98.6600          4
  98.6800          3
  98.7000          1
  98.7200          2
  98.7400          2
  98.7600          5
  98.7800          2
  98.8000          3
  98.8200          0
  98.8400          3
  98.8600          4
  98.8800          2
  98.9000          0
  98.9200          2
  98.9400          5
  98.9600          2
  98.9800          1
  99.0000          4
  99.0200          5
  99.0400          1
  99.0600          3
  99.0800          3
  99.1000          3
  99.1200          4
  99.1400          1
  99.1600          3
  99.1800          4
  99.2000          1
  99.2200          1
  99.2400          2
  99.2600          0
  99.2800          1
  99.3000          1
  99.3200          1
  99.3400          1
  99.3600          3
  99.3800          1
  99.4000          1
  99.4200          0
  99.4400          3
  99.4600          0
  99.4800          3
  99.5000          3
  99.5200          1
  99.5400          3
  99.5600          5
  99.5800          2
  99.6000          1
  99.6200          2
  99.6400          3
  99.6600          4
  99.6800          2
  99.7000          3
  99.7200          1
  99.7400          2
  99.7600          1
  99.7800          2
  99.8000          2
  99.8200          2
  99.8400          1
  99.8600          4
  99.8800          1
  99.9000          2
  99.9200          0
  99.9400          1
  99.9600          5
  99.9800          1
 100.0000          2
 100.0200          5
 100.0400          4
 100.0600          3
 100.0800          4
 100.1000          2
 100.1200          1
 100.1400          4
 100.1600          3
 100.1800          6
 100.2000          5
 100.2200          3
 100.2400          2
 100.2600          3
 100.2800          1
 100.3000          2
 100.3200          4
 100.3400          1
 100.3600          2
 100.3800          1
 100.4000          4
 100.4200          2
 100.4400          4
 100.4600          3
 100.4800          3
 100.5000          0
 100.5200          4
 100.5400          1
 100.5600          3
 100.5800          3
 100.6000          1
 100.6200          3
 100.6400          3
 100.6600          2
 100.6800          3
 100.7000          0
 100.7200          6
 100.7400          4
 100.7600          2
 100.7800          1
 100.8000          1
 100.8200          2
 100.8400          3
 100.8600          1
 100.8800          2
 100.9000          3
 100.9200          1
 100.9400          3
 100.9600          1
 100.9800          0
 101.0000          5
 101.0200          3
 101.0400          4
 101.0600          0
 101.0800          2
 101.1000          3
 101.1200          3
 101.1400          3
 101.1600          2
 101.1800          6
 101.2000          5
 101.2200          1
 101.2400          5
 101.2600          3
 101.2800          1
 101.3000          3
 101.3200          2
 101.3400          1
 101.3600          2
 101.3800          0
 101.4000          0
 101.4200          0
 101.4400          1
 101.4600          0
 101.4800          3
 101.5000          6
 101.5200          2
 101.5400          1
 101.5600          4
 101.5800          2
 101.6000          2
 101.6200          4
 101.6400          3
 101.6600          2
 101.6800          4
 101.7000          2
 101.7200          3
 101.7400          4
 101.7600          4
 101.7800          1
 101.8000          0
 101.8200          4
 101.8400          1
 101.8600          1
 101.8800          1
 101.9000          2
 101.9200          2
 101.9400          1
 101.9600          2
 101.9800          4
 102.0000          0
 102.0200          2
 102.0400          4
 102.0600          2
 102.0800          3
 102.1000          4
 102.1200          2
 102.1400          4
 102.1600          5
 102.1800          1
 102.2000          4
 102.2200          1
 102.2400          2
 102.2600          4
 102.2800          3
 102.3000          5
 102.3200          2
 102.3400          5
 102.3600          3
 102.3800          1
 102.4000          5
 102.4200          5
 102.4400          1
 102.4600          3
 102.4800          9
 102.5000          5
 102.5200          3
 102.5400          2
 102.5600          9
 102.5800         10
 102.6000          6
 102.6200         11
 102.6400         10
 102.6600         12
 102.6800         18
 102.7000         12
 102.7200         11
 102.7400          6
 102.7600          6
 102.7800          5
 102.8000          4
 102.8200          5
 102.8400          3
 102.8600          6
 102.8800          7
 102.9000          0
 102.9200          1
 102.9400          3
 102.9600          6
 102.9800          5
 103.0000          2
 103.0200          2
 103.0400          4
 103.0600          0
 103.0800          3
 103.1000          1
 103.1200          2
 103.1400          3
 103.1600          4
 103.1800          4
 103.2000          3
 103.2200          3
 103.2400          3
 103.2600          1
 103.2800          4
 103.3000          0
 103.3200          0
 103.3400          0
 103.3600          4
 103.3800          5
 103.4000          1
 103.4200          3
 103.4400          2
 103.4600          2
 103.4800          2
 103.5000          2
 103.5200          3
 103.5400          5
 103.5600          1
 103.5800          2
 103.6000          6
 103.6200          3
 103.6400          1
 103.6600          2
 103.6800          1
 103.7000          2
 103.7200          2
 103.7400          4
 103.7600          2
 103.7800          2
 103.8000          2
 103.8200          1
 103.8400          3
 103.8600          2
 103.8800          2
 103.9000          1
 103.9200          1
 103.9400          6
 103.9600          1
 103.9800          6
 104.0000          3
 104.0200          6
 104.0400          3
 104.0600          3
 104.0800          2
 104.1000          4
 104.1200          2
 104.1400          0
 104.1600          2
 104.1800          2
 104.2000          2
 104.2200          1
 104.2400          4
 104.2600          0
 104.2800          2
 104.3000          4
 104.3200          3
 104.3400          3
 104.3600          5
 104.3800          4
 104.4000          0
 104.4200          1
 104.4400          1
 104.4600          0
 104.4800          3
 104.5000          2
 104.5200          4
 104.5400          1
 104.5600          3
 104.5800          6
 104.6000          1
 104.6200          3
 104.6400          0
 104.6600          1
 104.6800          2
 104.7000          2
 104.7200          3
 104.7400          0
 104.7600          3
 104.7800          3
 104.8000          3
 104.8200          3
 104.8400          3
 104.8600          1
 104.8800          7
 104.9000          0
 104.9200          2
 104.9400          5
 104.9600          2
 104.9800          1
 105.0000          0
 105.0200          4
 105.0400          5
 105.0600          2
 105.0800          5
 105.1000          5
 105.1200          0
 105.1400          1
 105.1600          4
 105.1800          2
 105.2000          2
 105.2200          3
 105.2400          2
 105.2600          2
 105.2800          1
 105.3000          1
 105.3200          0
 105.3400          1
 105.3600          4
 105.3800          2
 105.4000          2
 105.4200          2
 105.4400          3
 105.4600          3
 105.4800          2
 105.5000          1
 105.5200          2
 105.5400          1
 105.5600          3
 105.5800          1
 105.6000          3
 105.6200          3
 105.6400          1
 105.6600          5
 105.6800          1
 105.7000          2
 105.7200          4
 105.7400          1
 105.7600          0
 105.7800          1
 105.8000          5
 105.8200          4
 105.8400          3
 105.8600          6
 105.8800          1
 105.9000          1
 105.9200          1
 105.9400          1
 105.9600          0
 105.9800          0
 106.0000          0
 106.0200          2
 106.0400          3
 106.0600          8
 106.0800          0
 106.1000          2
 106.1200          1
 106.1400          1
 106.1600          1
 106.1800          5
 106.2000          1
 106.2200          2
 106.2400          1
 106.2600          2
 106.2800          3
 106.3000          3
 106.3200          4
 106.3400          3
 106.3600          3
 106.3800          0
 106.4000          2
 106.4200          1
 106.4400          2
 106.4600          5
 106.4800          0
 106.5000          1
 106.5200          1
 106.5400          2
 106.5600          5
 106.5800          4
 106.6000          6
 106.6200          2
 106.6400          3
 106.6600          3
 106.6800          6
 106.7000          1
 106.7200          3
 106.7400          2
 106.7600          2
 106.7800          3
 106.8000          4
 106.8200          5
 106.8400          2
 106.8600          2
 106.8800          3
 106.9000          1
 106.9200          2
 106.9400          1
 106.9600          4
 106.9800          4
 107.0000          3
 107.0200          2
 107.0400          2
 107.0600          6
 107.0800          3
 107.1000          2
 107.1200          5
 107.1400          2
 107.1600          2
 107.1800          4
 107.2000          0
 107.2200          0
 107.2400          1
 107.2600          2
 107.2800          6
 107.3000          1
 107.3200          0
 107.3400          5
 107.3600          4
 107.3800          4
 107.4000          1
 107.4200          2
 107.4400          2
 107.4600          4
 107.4800          3
 107.5000          6
 107.5200          2
 107.5400          5
 107.5600          4
 107.5800          2
 107.6000          3
 107.6200          4
 107.6400          0
 107.6600          2
 107.6800          6
 107.7000          1
 107.7200          4
 107.7400          1
 107.7600          0
 107.7800          0
 107.8000          4
 107.8200          1
 107.8400          1
 107.8600          2
 107.8800          2
 107.9000          3
 107.9200          2
 107.9400          4
 107.9600          0
 107.9800          2
 108.0000          2
 108.0200          2
 108.0400          3
 108.0600          6
 108.0800          2
 108.1000          5
 108.1200          1
 108.1400          2
 108.1600          1
 108.1800          2
 108.2000          4
 108.2200          4
 108.2400          3
 108.2600          2
 108.2800          1
 108.3000          4
 108.3200          5
 108.3400          2
 108.3600          6
 108.3800          2
 108.4000          0
 108.4200          1
 108.4400          1
 108.4600          2
 108.4800          2
 108.5000          1
 108.5200          3
 108.5400          6
 108.5600          2
 108.5800          0
 108.6000          2
 108.6200          1
 108.6400          1
 108.6600          3
 108.6800          5
 108.7000          4
 108.7200          4
 108.7400          3
 108.7600          7
 108.7800          4
 108.8000          3
 108.8200          2
 108.8400          3
 108.8600          2
 108.8800          2
 108.9000          1
 108.9200          6
 108.9400          2
 108.9600          0
 108.9800          2
 109.0000          2
 109.0200          3
 109.0400          1
 109.0600          2
 109.0800          1
 109.1000          2
 109.1200          1
 109.1400          3
 109.1600          3
 109.1800          3
 109.2000          2
 109.2200          4
 109.2400          5
 109.2600          6
 109.2800          3
 109.3000          3
 109.3200          3
 109.3400          7
 109.3600          2
 109.3800          3
 109.4000          3
 109.4200          5
 109.4400          5
 109.4600          3
 109.4800          3
 109.5000          3
 109.5200          1
 109.5400          1
 109.5600          2
 109.5800          3
 109.6000          1
 109.6200          5
 109.6400          4
 109.6600          0
 109.6800          5
 109.7000          1
 109.7200          2
 109.7400          4
 109.7600          4
 109.7800          4
 109.8000          4
 109.8200          1
 109.8400          2
 109.8600          3
 109.8800          4
 109.9000          2
 109.9200          5
 109.9400          7
 109.9600          4
 109.9800          2
 110.0000          4
 110.0200          2
 110.0400          5
 110.0600          4
 110.0800          5
 110.1000          4
 110.1200          5
 110.1400          3
 110.1600          5
 110.1800          8
 110.2000          2
 110.2200          1
 110.2400          6
 110.2600          4
 110.2800          6
 110.3000          4
 110.3200          4
 110.3400          5
 110.3600          6
 110.3800          5
 110.4000          8
 110.4200          2
 110.4400         10
 110.4600          1
 110.4800          6
 110.5000          3
 110.5200          7
 110.5400          8
 110.5600          6
 110.5800          1
 110.6000          4
 110.6200          5
 110.6400          9
 110.6600          4
 110.6800          4
 110.7000          6
 110.7200          9
 110.7400          5
 110.7600          7
 110.7800          7
 110.8000          8
 110.8200          5
 110.8400          7
 110.8600          4
 110.8800          7
 110.9000          2
 110.9200          3
 110.9400          5
 110.9600          3
 110.9800          3
 111.0000          5
 111.0200          5
 111.0400          3
 111.0600          2
 111.0800          4
 111.1000          7
 111.1200          5
 111.1400          3
 111.1600          3
 111.1800          2
 111.2000          2
 111.2200          3
 111.2400          4
 111.2600          2
 111.2800          6
 111.3000          3
 111.3200          7
 111.3400          7
 111.3600          4
 111.3800          6
 111.4000          5
 111.4200          1
 111.4400          5
 111.4600          4
 111.4800          3
 111.5000          5
 111.5200          6
 111.5400          2
 111.5600          0
 111.5800          2
 111.6000          2
 111.6200          4
 111.6400          7
 111.6600          4
 111.6800          5
 111.7000          4
 111.7200          6
 111.7400          5
 111.7600          6
 111.7800          4
 111.8000          3
 111.8200         10
 111.8400          3
 111.8600          6
 111.8800          6
 111.9000          3
 111.9200          3
 111.9400          9
 111.9600          5
 111.9800          4
 112.0000          3
 112.0200          6
 112.0400          3
 112.0600          7
 112.0800          3
 112.1000          3
 112.1200          2
 112.1400          3
 112.1600          2
 112.1800          5
 112.2000          3
 112.2200          4
 112.2400          5
 112.2600          3
 112.2800          2
 112.3000          5
 112.3200          2
 112.3400          2
 112.3600          2
 112.3800          1
 112.4000          3
 112.4200          5
 112.4400          3
 112.4600          4
 112.4800          5
 112.5000          5
 112.5200          5
 112.5400          0
 112.5600          2
 112.5800          3
 112.6000          6
 112.6200          6
 112.6400          2
 112.6600          1
 112.6800          4
 112.7000          3
 112.7200          4
 112.7400          3
 112.7600          1
 112.7800          3
 112.8000          2
 112.8200          2
 112.8400          4
 112.8600          6
 112.8800          2
 112.9000          5
 112.9200          0
 112.9400          5
 112.9600          5
 112.9800          4
 113.0000         12
 113.0200         10
 113.0400         21
 113.0600          4
 113.0800         10
 113.1000         15
 113.1200          4
 113.1400         13
 113.1600         13
 113.1800         17
 113.2000         23
 113.2200         20
 113.2400         14
 113.2600         17
 113.2800         27
 113.3000         17
 113.3200         19
 113.3400         17
 113.3600         26
 113.3800         19
 113.4000         13
 113.4200         21
 113.4400         26
 113.4600         14
 113.4800         22
 113.5000         23
 113.5200         15
 113.5400         19
 113.5600         16
 113.5800         16
 113.6000         21
 113.6200         21
 113.6400         19
 113.6600         25
 113.6800         21
 113.7000         19
 113.7200         22
 113.7400         23
 113.7600         29
 113.7800         16
 113.8000         26
 113.8200         27
 113.8400         36
 113.8600         25
 113.8800         19
 113.9000         32
 113.9200         24
 113.9400         21
 113.9600         24
 113.9800         24
 114.0000         26
 114.0200         22
 114.0400         28
 114.0600         27
 114.0800         25
 114.1000         18
 114.1200         27
 114.1400         25
 114.1600         18
 114.1800         28
 114.2000         41
 114.2200         24
 114.2400         20
 114.2600         22
 114.2800         25
 114.3000         38
 114.3200         33
 114.3400         31
 114.3600         25
 114.3800         25
 114.4000         17
 114.4200         20
 114.4400         28
 114.4600         36
 114.4800         27
 114.5000         28
 114.5200         29
 114.5400         32
 114.5600         34
 114.5800         27
 114.6000         35
 114.6200         32
 114.6400         25
 114.6600         33
 114.6800         27
 114.7000         27
 114.7200         31
 114.7400         37
 114.7600         45
 114.7800         41
 114.8000         22
 114.8200         42
 114.8400         36
 114.8600         35
 114.8800         35
 114.9000         44
 114.9200         33
 114.9400         37
 114.9600         41
 114.9800         38
 115.0000         31
 115.0200         29
 115.0400         41
 115.0600         40
 115.0800         36
 115.1000         35
 115.1200         44
 115.1400         41
 115.1600         44
 115.1800         54
 115.2000         36
 115.2200         46
 115.2400         40
 115.2600         40
 115.2800         34
 115.3000         39
 115.3200         42
 115.3400         32
 115.3600         51
 115.3800         42
 115.4000         30
 115.4200         45
 115.4400         46
 115.4600         43
 115.4800         38
 115.5000         51
 115.5200         44
 115.5400         44
 115.5600         42
 115.5800         45
 115.6000         60
 115.6200         50
 115.6400         47
 115.6600         50
 115.6800         53
 115.7000         58
 115.7200         47
 115.7400         48
 115.7600         61
 115.7800         48
 115.8000         49
 115.8200         55
 115.8400         45
 115.8600         58
 115.8800         61
 115.9000         55
 115.9200         56
 115.9400         63
 115.9600         69
 115.9800         58
 116.0000         68
 116.0200         58
 116.0400         50
 116.0600         73
 116.0800         59
 116.1000         66
 116.1200         66
 116.1400         54
 116.1600         54
 116.1800         61
 116.2000         59
 116.2200         68
 116.2400         63
 116.2600         92
 116.2800         81
 116.3000         67
 116.3200         60
 116.3400         67
 116.3600         58
 116.3800         59
 116.4000         67
 116.4200         75
 116.4400         76
 116.4600         65
 116.4800         67
 116.5000         89
 116.5200         76
 116.5400         78
 116.5600         85
 116.5800         76
 116.6000         90
 116.6200         68
 116.6400         82
 116.6600         84
 116.6800         70
 116.7000         86
 116.7200         85
 116.7400         87
 116.7600         86
 116.7800         84
 116.8000         78
 116.8200         99
 116.8400        109
 116.8600         72
 116.8800         99
 116.9000         86
 116.9200         92
 116.9400         97
 116.9600         99
 116.9800         91
 117.0000        105
 117.0200        103
 117.0400         90
 117.0600        114
 117.0800        109
 117.1000         96
 117.1200        109
 117.1400        104
 117.1600         92
 117.1800        120
 117.2000        113
 117.2200        114
 117.2400        102
 117.2600         88
 117.2800        116
 117.3000        111
 117.3200        107
 117.3400        116
 117.3600         84
 117.3800         93
 117.4000        123
 117.4200        101
 117.4400        113
 117.4600        103
 117.4800        143
 117.5000        114
 117.5200        142
 117.5400        141
 117.5600        150
 117.5800        102
 117.6000        133
 117.6200        135
 117.6400        132
 117.6600        133
 117.6800        134
 117.7000        154
 117.7200        169
 117.7400        164
 117.7600        133
 117.7800        149
 117.8000        151
 117.8200        144
 117.8400        165
 117.8600        189
 117.8800        158
 117.9000        164
 117.9200        181
 117.9400        163
 117.9600        168
 117.9800        199
 118.0000        200
 118.0200        188
 118.0400        216
 118.0600        204
 118.0800        219
 118.1000        216
 118.1200        241
 118.1400        242
 118.1600        215
 118.1800        225
 118.2000        250
 118.2200        225
 118.2400        235
 118.2600        252
 118.2800        309
 118.3000        283
 118.3200        301
 118.3400        296
 118.3600        325
 118.3800        323
 118.4000        358
 118.4200        360
 118.4400        376
 118.4600        466
 118.4800        443
 118.5000        512
 118.5200        598
 118.5400        604
 118.5600        665
 118.5800        756
 118.6000        795
 118.6200        842
 118.6400        917
 118.6600       1009
 118.6800       1042
 118.7000       1065
 118.7200       1095
 118.7400       1133
 118.7600       1146
 118.7800       1150
 118.8000       1150
 118.8200       1207
 118.8400       1144
 118.8600       1066
 118.8800       1087
 118.9000       1070
 118.9200       1049
 118.9400       1084
 118.9600       1073
 118.9800       1147
 119.0000       1236
 119.0200       1211
 119.0400       1372
 119.0600       1408
 119.0800       1526
 119.1000       1592
 119.1200       1696
 119.1400       1914
 119.1600       2122
 119.1800       2410
 119.2000       2693
 119.2200       3058
 119.2400       3544
 119.2600       3994
 119.2800       4796
 119.3000       5548
 119.3200       6706
 119.3400       8361
 119.3600      10683
 119.3800      14109
 119.4000      18908
 119.4200      26828
 119.4400      37800
 119.4600      64386
 119.4800      93610
 119.5000     129450
 119.5200     155751
 119.5400     155957
 119.5600     132132
 119.5800     104014
 119.6000      76993
 119.6200      54805
 119.6400      36937
 119.6600      26055
 119.6800      19196
 119.7000      14359
 119.7200      11116
 119.7400       9421
 119.7600       8115
 119.7800       7591
 119.8000       7288
 119.8200       7784
 119.8400       8705
 119.8600      10043
 119.8800      12722
 119.9000      16641
 119.9200      22304
 119.9400      31362
 119.9600      43064
 119.9800      59167
 120.0000      71457
 120.0200      77044
 120.0400      72005
 120.0600      61798
 120.0800      47401
 120.1000      34554
 120.1200      24891
 120.1400      17812
 120.1600      12953
 120.1800       9585
 120.2000       7228
 120.2200       5722
 120.2400       4642
 120.2600       3816
 120.2800       3285
 120.3000       2808
 120.3200       2533
 120.3400       2242
 120.3600       2016
 120.3800       1909
 120.4000       1781
 120.4200       1643
 120.4400       1480
 120.4600       1360
 120.4800       1293
 120.5000       1242
 120.5200       1176
 120.5400       1116
 120.5600       1071
 120.5800        968
 120.6000        942
 120.6200        883
 120.6400        876
 120.6600        827
 120.6800        809
 120.7000        766
 120.7200        733
 120.7400        714
 120.7600        680
 120.7800        644
 120.8000        593
 120.8200        592
 120.8400        610
 120.8600        576
 120.8800        535
 120.9000        585
 120.9200        504
 120.9400        505
 120.9600        525
 120.9800        476
 121.0000        472
 121.0200        454
 121.0400        464
 121.0600        425
 121.0800        444
 121.1000        397
 121.1200        414
 121.1400        398
 121.1600        388
 121.1800        374
 121.2000        351
 121.2200        332
 121.2400        331
 121.2600        347
 121.2800        333
 121.3000        327
 121.3200        312
 121.3400        330
 121.3600        311
 121.3800        295
 121.4000        317
 121.4200        298
 121.4400        308
 121.4600        300
 121.4800        276
 121.5000        288
 121.5200        273
 121.5400        256
 121.5600        285
 121.5800        262
 121.6000        258
 121.6200        248
 121.6400        244
 121.6600        248
 121.6800        249
 121.7000        257
 121.7200        246
 121.7400        249
 121.7600        258
 121.7800        236
 121.8000        238
 121.8200        231
 121.8400        227
 121.8600        225
 121.8800        219
 121.9000        215
 121.9200        223
 121.9400        233
 121.9600        207
 121.9800        224
 122.0000        196
