; (content of file \\Mai-b11e5c0abfd\d8\User\55373\0851539\0831\0811\0811B_2th_1.raw)
_FILEVERSION = 2
_SAMPLE = 
_+SAMPLE = 
_SITE = Taiwan
_USER = Administrator
_GONIOMETER_CODE = 20
_STAGE_CODE = 13
; Goniometer : D8 theta/2theta, stage : Unknown
_SAMPLE_CHANGER_CODE = 0
_ATTACHMENTS_CODE = 0
_GONIOMETER_RADIUS = 300
_FIXED_DIVSLIT = 0.6
_FIXED_SAMPLESLIT = 0
_FIXED_DETSLIT = 0.1
_MONOCHROMATOR = 0
; Incident beam monochromator : None
_THIN_FILM = N
_BETA_FILTER = N
_FIXED_ANTISLIT = 0.6
_ANALYZER_CODE = 0
; Received beam analyzer : None
_DATEMEASURED = "31-Aug-2021 19:57:53"
_WL_UNIT = A
_WL1 = 1.5406
_WL2 = 1.54439
_WL3 = 1.39222
_WLRATIO = 0.5
_ANODE = Cu

; Data for range 1
_DRIVE = COUPLED
_STEPTIME = 0.2
_STEPSIZE = 0.02
_STEPMODE = C
_START = 34
_THETA = 14.494
_2THETA = 34
_KHI = 0
_PHI = -83.5
_X = 0
_Y = 0
_Z = 0.0073
_DETECTOR = 1
; Detector type : Scintillation counter
_HV = 662
_GAIN = 80
_LLD = 0.545
_ULD = 1.917
_DETECTORSLIT = out
_AUX1 = 0
_AUX2 = 0
_AUX3 = 0
_TIMESTARTED = 17
_TEMP_RATE = -1
_TEMP_DELAY = -1
_KV = 40
_MA = 40
_RANGE_WL = 1.5406
_3DPLANE = 0
_V4_COUNTERS_MASK = 1
_V4_DRIVES_MASK = 0
_V4_ENCODERS_MASK = 0
_2THETACOUNTS = 1
; 2THETA  Cnt1_D1
  34.0000          6
  34.0200          4
  34.0400          2
  34.0600          5
  34.0800          2
  34.1000          3
  34.1200          3
  34.1400          6
  34.1600          4
  34.1800          4
  34.2000          1
  34.2200          4
  34.2400          4
  34.2600          5
  34.2800          6
  34.3000          1
  34.3200          9
  34.3400          4
  34.3600          2
  34.3800          2
  34.4000          1
  34.4200          0
  34.4400          0
  34.4600          5
  34.4800          5
  34.5000          1
  34.5200          4
  34.5400          5
  34.5600          5
  34.5800          0
  34.6000          5
  34.6200          6
  34.6400          4
  34.6600          3
  34.6800          2
  34.7000          2
  34.7200          4
  34.7400          1
  34.7600          4
  34.7800          4
  34.8000          1
  34.8200          4
  34.8400          5
  34.8600          1
  34.8800          3
  34.9000          3
  34.9200          2
  34.9400          4
  34.9600          1
  34.9800          5
  35.0000          2
  35.0200          5
  35.0400          8
  35.0600          4
  35.0800          2
  35.1000          4
  35.1200          3
  35.1400          6
  35.1600          4
  35.1800          4
  35.2000          4
  35.2200          4
  35.2400          4
  35.2600          3
  35.2800          3
  35.3000          1
  35.3200          6
  35.3400          6
  35.3600          2
  35.3800          2
  35.4000          2
  35.4200          4
  35.4400          3
  35.4600          3
  35.4800          8
  35.5000          1
  35.5200          2
  35.5400          4
  35.5600          1
  35.5800          5
  35.6000          3
  35.6200          6
  35.6400          2
  35.6600          1
  35.6800          3
  35.7000          3
  35.7200          3
  35.7400          2
  35.7600          1
  35.7800          5
  35.8000          4
  35.8200          4
  35.8400          2
  35.8600          4
  35.8800          3
  35.9000          4
  35.9200          4
  35.9400          3
  35.9600          7
  35.9800          5
  36.0000          2
  36.0200          4
  36.0400          0
  36.0600          4
  36.0800          5
  36.1000          4
  36.1200          2
  36.1400          3
  36.1600          0
  36.1800          1
  36.2000          1
  36.2200          4
  36.2400          4
  36.2600          1
  36.2800          3
  36.3000          2
  36.3200          4
  36.3400          0
  36.3600          4
  36.3800          1
  36.4000          1
  36.4200          3
  36.4400          3
  36.4600          3
  36.4800          3
  36.5000          2
  36.5200          0
  36.5400          5
  36.5600          2
  36.5800          4
  36.6000          3
  36.6200          3
  36.6400          2
  36.6600          3
  36.6800          7
  36.7000          3
  36.7200          2
  36.7400          1
  36.7600          3
  36.7800          3
  36.8000          0
  36.8200          2
  36.8400          3
  36.8600          5
  36.8800          2
  36.9000          2
  36.9200          0
  36.9400          3
  36.9600          4
  36.9800          3
  37.0000          5
  37.0200          1
  37.0400          2
  37.0600          7
  37.0800          2
  37.1000          4
  37.1200          5
  37.1400          2
  37.1600          3
  37.1800          5
  37.2000          0
  37.2200          1
  37.2400          3
  37.2600          2
  37.2800          2
  37.3000          3
  37.3200          1
  37.3400          4
  37.3600          4
  37.3800          0
  37.4000          4
  37.4200          2
  37.4400          5
  37.4600          3
  37.4800          4
  37.5000          2
  37.5200          4
  37.5400          5
  37.5600          3
  37.5800          3
  37.6000          2
  37.6200          5
  37.6400          3
  37.6600          4
  37.6800          5
  37.7000          4
  37.7200          4
  37.7400          3
  37.7600          4
  37.7800          7
  37.8000          5
  37.8200          2
  37.8400          5
  37.8600          4
  37.8800          4
  37.9000          7
  37.9200          6
  37.9400          3
  37.9600          3
  37.9800          8
  38.0000          7
  38.0200          7
  38.0400         10
  38.0600          8
  38.0800         15
  38.1000         13
  38.1200          7
  38.1400          5
  38.1600          5
  38.1800          7
  38.2000          5
  38.2200          5
  38.2400         13
  38.2600         12
  38.2800         14
  38.3000          9
  38.3200         12
  38.3400         14
  38.3600         14
  38.3800         12
  38.4000         13
  38.4200         10
  38.4400          5
  38.4600          5
  38.4800          7
  38.5000          4
  38.5200          9
  38.5400          5
  38.5600          5
  38.5800          5
  38.6000          8
  38.6200         13
  38.6400          9
  38.6600          4
  38.6800          9
  38.7000          5
  38.7200          7
  38.7400          2
  38.7600          7
  38.7800          4
  38.8000          7
  38.8200          4
  38.8400          6
  38.8600          3
  38.8800          5
  38.9000          6
  38.9200          6
  38.9400          2
  38.9600          4
  38.9800          2
  39.0000          4
  39.0200          8
  39.0400          5
  39.0600          2
  39.0800          4
  39.1000          6
  39.1200          4
  39.1400          4
  39.1600          1
  39.1800          2
  39.2000          5
  39.2200          2
  39.2400          3
  39.2600          2
  39.2800          1
  39.3000          4
  39.3200          3
  39.3400          5
  39.3600          4
  39.3800          2
  39.4000          6
  39.4200          4
  39.4400          3
  39.4600          6
  39.4800          2
  39.5000          2
  39.5200          2
  39.5400          4
  39.5600          2
  39.5800          0
  39.6000          1
  39.6200          3
  39.6400          3
  39.6600          3
  39.6800          3
  39.7000          4
  39.7200          4
  39.7400          3
  39.7600          1
  39.7800          3
  39.8000          3
  39.8200          4
  39.8400          3
  39.8600          4
  39.8800          4
  39.9000          3
  39.9200          7
  39.9400          2
  39.9600          2
  39.9800          3
  40.0000          6
  40.0200          6
  40.0400          3
  40.0600          4
  40.0800          2
  40.1000          3
  40.1200          5
  40.1400          2
  40.1600          4
  40.1800          3
  40.2000          1
  40.2200          5
  40.2400          3
  40.2600          4
  40.2800          1
  40.3000          6
  40.3200          2
  40.3400          1
  40.3600          5
  40.3800          6
  40.4000          2
  40.4200          4
  40.4400          3
  40.4600          5
  40.4800          1
  40.5000          7
  40.5200          4
  40.5400          4
  40.5600          1
  40.5800          2
  40.6000          5
  40.6200          7
  40.6400          3
  40.6600          3
  40.6800          5
  40.7000          3
  40.7200          4
  40.7400          2
  40.7600          1
  40.7800          2
  40.8000          2
  40.8200          3
  40.8400          1
  40.8600          4
  40.8800          7
  40.9000          3
  40.9200          2
  40.9400          4
  40.9600          5
  40.9800          3
  41.0000          4
  41.0200          2
  41.0400          4
  41.0600          3
  41.0800          3
  41.1000          3
  41.1200          1
  41.1400          1
  41.1600          4
  41.1800          2
  41.2000          2
  41.2200          5
  41.2400          7
  41.2600          5
  41.2800          3
  41.3000          4
  41.3200          5
  41.3400          2
  41.3600          1
  41.3800          6
  41.4000          4
  41.4200          4
  41.4400          3
  41.4600          2
  41.4800          3
  41.5000          4
  41.5200          2
  41.5400          3
  41.5600          6
  41.5800          6
  41.6000         11
  41.6200          9
  41.6400         10
  41.6600          5
  41.6800          3
  41.7000         10
  41.7200          7
  41.7400          3
  41.7600          5
  41.7800          2
  41.8000          6
  41.8200          6
  41.8400          8
  41.8600          4
  41.8800          2
  41.9000          4
  41.9200          3
  41.9400          7
  41.9600          3
  41.9800          3
  42.0000          4
  42.0200          1
  42.0400          4
  42.0600          9
  42.0800          5
  42.1000          4
  42.1200          2
  42.1400          4
  42.1600          4
  42.1800          4
  42.2000          5
  42.2200          2
  42.2400          4
  42.2600          5
  42.2800          4
  42.3000          4
  42.3200          5
  42.3400          5
  42.3600          4
  42.3800          5
  42.4000          6
  42.4200          2
  42.4400          4
  42.4600          6
  42.4800          2
  42.5000          4
  42.5200          2
  42.5400          1
  42.5600          5
  42.5800          3
  42.6000          5
  42.6200          5
  42.6400          2
  42.6600          5
  42.6800          2
  42.7000          4
  42.7200          5
  42.7400          4
  42.7600          6
  42.7800          3
  42.8000          3
  42.8200          4
  42.8400          7
  42.8600          5
  42.8800          2
  42.9000          7
  42.9200          4
  42.9400          4
  42.9600          2
  42.9800          1
  43.0000          3
  43.0200          1
  43.0400          5
  43.0600          5
  43.0800          7
  43.1000          4
  43.1200          7
  43.1400          2
  43.1600          3
  43.1800          2
  43.2000          2
  43.2200          5
  43.2400          5
  43.2600          5
  43.2800          2
  43.3000          2
  43.3200          2
  43.3400          7
  43.3600          2
  43.3800          3
  43.4000          9
  43.4200          5
  43.4400          2
  43.4600          3
  43.4800         10
  43.5000          6
  43.5200          0
  43.5400          5
  43.5600          4
  43.5800          4
  43.6000          2
  43.6200          5
  43.6400          1
  43.6600          2
  43.6800          2
  43.7000          2
  43.7200          4
  43.7400          4
  43.7600          5
  43.7800          7
  43.8000          3
  43.8200          6
  43.8400          0
  43.8600          2
  43.8800          4
  43.9000          4
  43.9200          4
  43.9400          3
  43.9600          1
  43.9800          6
  44.0000          5
  44.0200          3
  44.0400          7
  44.0600          3
  44.0800          3
  44.1000          5
  44.1200          6
  44.1400          6
  44.1600          2
  44.1800          5
  44.2000          6
  44.2200          6
  44.2400          5
  44.2600          3
  44.2800          5
  44.3000          3
  44.3200          6
  44.3400          6
  44.3600          5
  44.3800          6
  44.4000          3
  44.4200          3
  44.4400          9
  44.4600          6
  44.4800          8
  44.5000          7
  44.5200          2
  44.5400          5
  44.5600          4
  44.5800          7
  44.6000          6
  44.6200          7
  44.6400          2
  44.6600          6
  44.6800          4
  44.7000          8
  44.7200          2
  44.7400          5
  44.7600          3
  44.7800          5
  44.8000          5
  44.8200          5
  44.8400          3
  44.8600          4
  44.8800          4
  44.9000          5
  44.9200         11
  44.9400          8
  44.9600          4
  44.9800          5
  45.0000          6
  45.0200          4
  45.0400          2
  45.0600          4
  45.0800          5
  45.1000          3
  45.1200          6
  45.1400          8
  45.1600          2
  45.1800          1
  45.2000          7
  45.2200          5
  45.2400          2
  45.2600          3
  45.2800          3
  45.3000          6
  45.3200          2
  45.3400          2
  45.3600          1
  45.3800          6
  45.4000          2
  45.4200          3
  45.4400          2
  45.4600          1
  45.4800          1
  45.5000          2
  45.5200          4
  45.5400          3
  45.5600          3
  45.5800          6
  45.6000          5
  45.6200          3
  45.6400          3
  45.6600          2
  45.6800          4
  45.7000          3
  45.7200          4
  45.7400          3
  45.7600          4
  45.7800          2
  45.8000          4
  45.8200          1
  45.8400          2
  45.8600          5
  45.8800          0
  45.9000          6
  45.9200          1
  45.9400          1
  45.9600          3
  45.9800          5
  46.0000          3
  46.0200          3
  46.0400          6
  46.0600          4
  46.0800          2
  46.1000          1
  46.1200          1
  46.1400          5
  46.1600          4
  46.1800          1
  46.2000          4
  46.2200          0
  46.2400          3
  46.2600          4
  46.2800          3
  46.3000          6
  46.3200          2
  46.3400          1
  46.3600          5
  46.3800          2
  46.4000          4
  46.4200          3
  46.4400          5
  46.4600          1
  46.4800          3
  46.5000          5
  46.5200          1
  46.5400          4
  46.5600          4
  46.5800          2
  46.6000          4
  46.6200          2
  46.6400          1
  46.6600          0
  46.6800          5
  46.7000          1
  46.7200          2
  46.7400          3
  46.7600          1
  46.7800          1
  46.8000          3
  46.8200          2
  46.8400          3
  46.8600          4
  46.8800          2
  46.9000          3
  46.9200          0
  46.9400          4
  46.9600          2
  46.9800          2
  47.0000          3
  47.0200          4
  47.0400          1
  47.0600          2
  47.0800          5
  47.1000          4
  47.1200          5
  47.1400          2
  47.1600          3
  47.1800          2
  47.2000          4
  47.2200          4
  47.2400          4
  47.2600          2
  47.2800          4
  47.3000          1
  47.3200          4
  47.3400          2
  47.3600          4
  47.3800          5
  47.4000          2
  47.4200          0
  47.4400          1
  47.4600          2
  47.4800          3
  47.5000          4
  47.5200          2
  47.5400          3
  47.5600          3
  47.5800          4
  47.6000          2
  47.6200          2
  47.6400          2
  47.6600          1
  47.6800          2
  47.7000          6
  47.7200          6
  47.7400          2
  47.7600          4
  47.7800          3
  47.8000          4
  47.8200          4
  47.8400          2
  47.8600          1
  47.8800          3
  47.9000          0
  47.9200          2
  47.9400          3
  47.9600          3
  47.9800          2
  48.0000          1
  48.0200          1
  48.0400          3
  48.0600          1
  48.0800          2
  48.1000          3
  48.1200          1
  48.1400          3
  48.1600          3
  48.1800          1
  48.2000          2
  48.2200          2
  48.2400          4
  48.2600          3
  48.2800          3
  48.3000          1
  48.3200          3
  48.3400          3
  48.3600          3
  48.3800          4
  48.4000          4
  48.4200          5
  48.4400          2
  48.4600          0
  48.4800          1
  48.5000          5
  48.5200          0
  48.5400          3
  48.5600          2
  48.5800          4
  48.6000          5
  48.6200          1
  48.6400          3
  48.6600          3
  48.6800          1
  48.7000          0
  48.7200          4
  48.7400          4
  48.7600          3
  48.7800          3
  48.8000          4
  48.8200          2
  48.8400          2
  48.8600          0
  48.8800          3
  48.9000          3
  48.9200          4
  48.9400          4
  48.9600          2
  48.9800          0
  49.0000          3
  49.0200          4
  49.0400          1
  49.0600          4
  49.0800          1
  49.1000          2
  49.1200          2
  49.1400          1
  49.1600          0
  49.1800          1
  49.2000          2
  49.2200          4
  49.2400          0
  49.2600          2
  49.2800          2
  49.3000          2
  49.3200          2
  49.3400          1
  49.3600          1
  49.3800          2
  49.4000          2
  49.4200          5
  49.4400          2
  49.4600          0
  49.4800          4
  49.5000          5
  49.5200          2
  49.5400          2
  49.5600          1
  49.5800          1
  49.6000          7
  49.6200          2
  49.6400          2
  49.6600          3
  49.6800          1
  49.7000          0
  49.7200          4
  49.7400          3
  49.7600          2
  49.7800          5
  49.8000          2
  49.8200          1
  49.8400          3
  49.8600          4
  49.8800          2
  49.9000          1
  49.9200          5
  49.9400          4
  49.9600          1
  49.9800          1
  50.0000          2
  50.0200          1
  50.0400          2
  50.0600          1
  50.0800          1
  50.1000          3
  50.1200          5
  50.1400          4
  50.1600          1
  50.1800          4
  50.2000          3
  50.2200          0
  50.2400          0
  50.2600          2
  50.2800          1
  50.3000          1
  50.3200          2
  50.3400          1
  50.3600          1
  50.3800          0
  50.4000          3
  50.4200          1
  50.4400          4
  50.4600          1
  50.4800          5
  50.5000          4
  50.5200          1
  50.5400          2
  50.5600          1
  50.5800          0
  50.6000          3
  50.6200          3
  50.6400          3
  50.6600          2
  50.6800          2
  50.7000          3
  50.7200          6
  50.7400          2
  50.7600          3
  50.7800          3
  50.8000          1
  50.8200          2
  50.8400          2
  50.8600          4
  50.8800          2
  50.9000          1
  50.9200          2
  50.9400          2
  50.9600          1
  50.9800          1
  51.0000          2
  51.0200          0
  51.0400          4
  51.0600          3
  51.0800          1
  51.1000          2
  51.1200          1
  51.1400          1
  51.1600          4
  51.1800          4
  51.2000          2
  51.2200          2
  51.2400          7
  51.2600          2
  51.2800          1
  51.3000          0
  51.3200          3
  51.3400          1
  51.3600          3
  51.3800          4
  51.4000          6
  51.4200          0
  51.4400          1
  51.4600          4
  51.4800          3
  51.5000          0
  51.5200          2
  51.5400          2
  51.5600          1
  51.5800          1
  51.6000          0
  51.6200          3
  51.6400          4
  51.6600          3
  51.6800          1
  51.7000          2
  51.7200          2
  51.7400          3
  51.7600          2
  51.7800          1
  51.8000          1
  51.8200          2
  51.8400          0
  51.8600          4
  51.8800          3
  51.9000          0
  51.9200          1
  51.9400          2
  51.9600          4
  51.9800          3
  52.0000          1
  52.0200          3
  52.0400          1
  52.0600          1
  52.0800          2
  52.1000          0
  52.1200          3
  52.1400          4
  52.1600          4
  52.1800          1
  52.2000          2
  52.2200          5
  52.2400          2
  52.2600          4
  52.2800          6
  52.3000          4
  52.3200          1
  52.3400          4
  52.3600          2
  52.3800          3
  52.4000          0
  52.4200          1
  52.4400          0
  52.4600          0
  52.4800          3
  52.5000          3
  52.5200          2
  52.5400          2
  52.5600          2
  52.5800          2
  52.6000          1
  52.6200          3
  52.6400          2
  52.6600          2
  52.6800          3
  52.7000          0
  52.7200          0
  52.7400          1
  52.7600          5
  52.7800          3
  52.8000          2
  52.8200          1
  52.8400          3
  52.8600          1
  52.8800          1
  52.9000          3
  52.9200          0
  52.9400          1
  52.9600          4
  52.9800          2
  53.0000          2
  53.0200          2
  53.0400          3
  53.0600          0
  53.0800          0
  53.1000          4
  53.1200          4
  53.1400          3
  53.1600          2
  53.1800          3
  53.2000          0
  53.2200          2
  53.2400          3
  53.2600          4
  53.2800          2
  53.3000          3
  53.3200          2
  53.3400          2
  53.3600          3
  53.3800          3
  53.4000          3
  53.4200          3
  53.4400          4
  53.4600          2
  53.4800          0
  53.5000          4
  53.5200          0
  53.5400          2
  53.5600          2
  53.5800          3
  53.6000          4
  53.6200          2
  53.6400          1
  53.6600          1
  53.6800          4
  53.7000          0
  53.7200          1
  53.7400          2
  53.7600          2
  53.7800          5
  53.8000          5
  53.8200          0
  53.8400          2
  53.8600          1
  53.8800          1
  53.9000          2
  53.9200          4
  53.9400          1
  53.9600          4
  53.9800          1
  54.0000          2
  54.0200          2
  54.0400          1
  54.0600          5
  54.0800          2
  54.1000          0
  54.1200          1
  54.1400          4
  54.1600          2
  54.1800          2
  54.2000          1
  54.2200          2
  54.2400          3
  54.2600          2
  54.2800          4
  54.3000          2
  54.3200          5
  54.3400          3
  54.3600          2
  54.3800          1
  54.4000          2
  54.4200          2
  54.4400          2
  54.4600          6
  54.4800          1
  54.5000          3
  54.5200          3
  54.5400          1
  54.5600          2
  54.5800          2
  54.6000          1
  54.6200          3
  54.6400          5
  54.6600          3
  54.6800          2
  54.7000          1
  54.7200          3
  54.7400          3
  54.7600          1
  54.7800          0
  54.8000          2
  54.8200          2
  54.8400          3
  54.8600          3
  54.8800          2
  54.9000          1
  54.9200          4
  54.9400          0
  54.9600          1
  54.9800          1
  55.0000          3
  55.0200          4
  55.0400          1
  55.0600          1
  55.0800          6
  55.1000          5
  55.1200          2
  55.1400          0
  55.1600          3
  55.1800          2
  55.2000          0
  55.2200          2
  55.2400          2
  55.2600          2
  55.2800          2
  55.3000          0
  55.3200          1
  55.3400          4
  55.3600          2
  55.3800          0
  55.4000          0
  55.4200          4
  55.4400          1
  55.4600          2
  55.4800          3
  55.5000          1
  55.5200          4
  55.5400          6
  55.5600          3
  55.5800          2
  55.6000          4
  55.6200          3
  55.6400          2
  55.6600          3
  55.6800          1
  55.7000          2
  55.7200          0
  55.7400          4
  55.7600          3
  55.7800          3
  55.8000          2
  55.8200          0
  55.8400          1
  55.8600          3
  55.8800          1
  55.9000          3
  55.9200          3
  55.9400          1
  55.9600          2
  55.9800          1
  56.0000          1
  56.0200          1
  56.0400          1
  56.0600          1
  56.0800          3
  56.1000          0
  56.1200          1
  56.1400          3
  56.1600          3
  56.1800          4
  56.2000          0
  56.2200          1
  56.2400          4
  56.2600          1
  56.2800          1
  56.3000          3
  56.3200          2
  56.3400          2
  56.3600          4
  56.3800          1
  56.4000          7
  56.4200          1
  56.4400          4
  56.4600          3
  56.4800          2
  56.5000          3
  56.5200          3
  56.5400          3
  56.5600          3
  56.5800          2
  56.6000          4
  56.6200          1
  56.6400          2
  56.6600          3
  56.6800          0
  56.7000          1
  56.7200          1
  56.7400          0
  56.7600          3
  56.7800          0
  56.8000          0
  56.8200          3
  56.8400          1
  56.8600          3
  56.8800          4
  56.9000          0
  56.9200          8
  56.9400          1
  56.9600          1
  56.9800          1
  57.0000          3
  57.0200          1
  57.0400          1
  57.0600          3
  57.0800          2
  57.1000          2
  57.1200          0
  57.1400          1
  57.1600          2
  57.1800          2
  57.2000          1
  57.2200          4
  57.2400          3
  57.2600          2
  57.2800          1
  57.3000          1
  57.3200          2
  57.3400          0
  57.3600          4
  57.3800          1
  57.4000          4
  57.4200          2
  57.4400          1
  57.4600          2
  57.4800          2
  57.5000          2
  57.5200          3
  57.5400          3
  57.5600          3
  57.5800          3
  57.6000          2
  57.6200          0
  57.6400          1
  57.6600          4
  57.6800          0
  57.7000          0
  57.7200          2
  57.7400          3
  57.7600          0
  57.7800          6
  57.8000          3
  57.8200          1
  57.8400          3
  57.8600          4
  57.8800          3
  57.9000          5
  57.9200          0
  57.9400          2
  57.9600          4
  57.9800          0
  58.0000          1
  58.0200          2
  58.0400          1
  58.0600          0
  58.0800          4
  58.1000          0
  58.1200          1
  58.1400          2
  58.1600          1
  58.1800          1
  58.2000          3
  58.2200          1
  58.2400          3
  58.2600          0
  58.2800          0
  58.3000          4
  58.3200          1
  58.3400          5
  58.3600          1
  58.3800          3
  58.4000          2
  58.4200          1
  58.4400          8
  58.4600          2
  58.4800          5
  58.5000          3
  58.5200          0
  58.5400          2
  58.5600          7
  58.5800          1
  58.6000          5
  58.6200          5
  58.6400          2
  58.6600          0
  58.6800          3
  58.7000          3
  58.7200          1
  58.7400          0
  58.7600          2
  58.7800          0
  58.8000          2
  58.8200          1
  58.8400          2
  58.8600          1
  58.8800          1
  58.9000          3
  58.9200          4
  58.9400          2
  58.9600          4
  58.9800          1
  59.0000          2
  59.0200          4
  59.0400          0
  59.0600          1
  59.0800          0
  59.1000          2
  59.1200          2
  59.1400          4
  59.1600          0
  59.1800          2
  59.2000          1
  59.2200          1
  59.2400          2
  59.2600          5
  59.2800          2
  59.3000          2
  59.3200          1
  59.3400          0
  59.3600          3
  59.3800          1
  59.4000          3
  59.4200          0
  59.4400          1
  59.4600          2
  59.4800          1
  59.5000          1
  59.5200          2
  59.5400          2
  59.5600          2
  59.5800          1
  59.6000          2
  59.6200          2
  59.6400          1
  59.6600          2
  59.6800          1
  59.7000          4
  59.7200          2
  59.7400          2
  59.7600          0
  59.7800          5
  59.8000          2
  59.8200          2
  59.8400          8
  59.8600          3
  59.8800          1
  59.9000          1
  59.9200          2
  59.9400          0
  59.9600          1
  59.9800          3
  60.0000          0
  60.0200          0
  60.0400          3
  60.0600          1
  60.0800          5
  60.1000          4
  60.1200          2
  60.1400          1
  60.1600          2
  60.1800          2
  60.2000          1
  60.2200          4
  60.2400          2
  60.2600          1
  60.2800          1
  60.3000          2
  60.3200          4
  60.3400          2
  60.3600          0
  60.3800          2
  60.4000          2
  60.4200          1
  60.4400          5
  60.4600          4
  60.4800          2
  60.5000          5
  60.5200          1
  60.5400          1
  60.5600          4
  60.5800          0
  60.6000          1
  60.6200          4
  60.6400          2
  60.6600          1
  60.6800          2
  60.7000          4
  60.7200          2
  60.7400          2
  60.7600          4
  60.7800          2
  60.8000          1
  60.8200          1
  60.8400          1
  60.8600          0
  60.8800          1
  60.9000          5
  60.9200          2
  60.9400          3
  60.9600          2
  60.9800          4
  61.0000          7
  61.0200          0
  61.0400          1
  61.0600          1
  61.0800          3
  61.1000          2
  61.1200          1
  61.1400          2
  61.1600          1
  61.1800          5
  61.2000          6
  61.2200          2
  61.2400          3
  61.2600          2
  61.2800          2
  61.3000          2
  61.3200          3
  61.3400          2
  61.3600          2
  61.3800          3
  61.4000          3
  61.4200          2
  61.4400          1
  61.4600          3
  61.4800          2
  61.5000          5
  61.5200          0
  61.5400          1
  61.5600          5
  61.5800          0
  61.6000          3
  61.6200          3
  61.6400          0
  61.6600          1
  61.6800          2
  61.7000          1
  61.7200          2
  61.7400          1
  61.7600          1
  61.7800          2
  61.8000          3
  61.8200          0
  61.8400          1
  61.8600          4
  61.8800          4
  61.9000          1
  61.9200          2
  61.9400          2
  61.9600          2
  61.9800          2
  62.0000          4
  62.0200          4
  62.0400          2
  62.0600          2
  62.0800          1
  62.1000          0
  62.1200          3
  62.1400          4
  62.1600          3
  62.1800          3
  62.2000          5
  62.2200          2
  62.2400          2
  62.2600          3
  62.2800          1
  62.3000          1
  62.3200          1
  62.3400          2
  62.3600          1
  62.3800          1
  62.4000          2
  62.4200          2
  62.4400          1
  62.4600          1
  62.4800          3
  62.5000          2
  62.5200          2
  62.5400          1
  62.5600          1
  62.5800          1
  62.6000          3
  62.6200          4
  62.6400          3
  62.6600          2
  62.6800          1
  62.7000          0
  62.7200          4
  62.7400          4
  62.7600          5
  62.7800          2
  62.8000          2
  62.8200          3
  62.8400          3
  62.8600          5
  62.8800          3
  62.9000          4
  62.9200          4
  62.9400          1
  62.9600          4
  62.9800          1
  63.0000          2
  63.0200          2
  63.0400          2
  63.0600          1
  63.0800          5
  63.1000          4
  63.1200          2
  63.1400          0
  63.1600          2
  63.1800          1
  63.2000          3
  63.2200          2
  63.2400          1
  63.2600          1
  63.2800          2
  63.3000          2
  63.3200          2
  63.3400          2
  63.3600          3
  63.3800          1
  63.4000          2
  63.4200          2
  63.4400          3
  63.4600          5
  63.4800          1
  63.5000          3
  63.5200          3
  63.5400          2
  63.5600          2
  63.5800          2
  63.6000          0
  63.6200          2
  63.6400          2
  63.6600          3
  63.6800          5
  63.7000          2
  63.7200          3
  63.7400          1
  63.7600          4
  63.7800          4
  63.8000          1
  63.8200          5
  63.8400          1
  63.8600          0
  63.8800          2
  63.9000          3
  63.9200          0
  63.9400          7
  63.9600          2
  63.9800          1
  64.0000          3
  64.0200          0
  64.0400          1
  64.0600          2
  64.0800          1
  64.1000          0
  64.1200          3
  64.1400          4
  64.1600          1
  64.1800          2
  64.2000          5
  64.2200          1
  64.2400          0
  64.2600          0
  64.2800          1
  64.3000          3
  64.3200          3
  64.3400          2
  64.3600          2
  64.3800          2
  64.4000          3
  64.4200          0
  64.4400          3
  64.4600          2
  64.4800          1
  64.5000          4
  64.5200          4
  64.5400          2
  64.5600          5
  64.5800          2
  64.6000          2
  64.6200          2
  64.6400          2
  64.6600          4
  64.6800          4
  64.7000          2
  64.7200          4
  64.7400          3
  64.7600          3
  64.7800          2
  64.8000          2
  64.8200          3
  64.8400          3
  64.8600          2
  64.8800          7
  64.9000          5
  64.9200          2
  64.9400          1
  64.9600          1
  64.9800          1
  65.0000          4
  65.0200          1
  65.0400          4
  65.0600          3
  65.0800          5
  65.1000          1
  65.1200          4
  65.1400          5
  65.1600          4
  65.1800          1
  65.2000          4
  65.2200          4
  65.2400          4
  65.2600          5
  65.2800          1
  65.3000          3
  65.3200          2
  65.3400          2
  65.3600          2
  65.3800          3
  65.4000          3
  65.4200          1
  65.4400          0
  65.4600          1
  65.4800          1
  65.5000          2
  65.5200          1
  65.5400          3
  65.5600          0
  65.5800          3
  65.6000          1
  65.6200          1
  65.6400          1
  65.6600          2
  65.6800          3
  65.7000          3
  65.7200          1
  65.7400          3
  65.7600          1
  65.7800          1
  65.8000          3
  65.8200          1
  65.8400          1
  65.8600          3
  65.8800          2
  65.9000          1
  65.9200          1
  65.9400          1
  65.9600          3
  65.9800          3
  66.0000          4
  66.0200          1
  66.0400          3
  66.0600          3
  66.0800          2
  66.1000          3
  66.1200          1
  66.1400          2
  66.1600          1
  66.1800          2
  66.2000          2
  66.2200          1
  66.2400          6
  66.2600          4
  66.2800          2
  66.3000          1
  66.3200          2
  66.3400          1
  66.3600          0
  66.3800          4
  66.4000          4
  66.4200          0
  66.4400          0
  66.4600          4
  66.4800          2
  66.5000          4
  66.5200          5
  66.5400          3
  66.5600          1
  66.5800          1
  66.6000          0
  66.6200          2
  66.6400          2
  66.6600          2
  66.6800          1
  66.7000          2
  66.7200          0
  66.7400          0
  66.7600          2
  66.7800          2
  66.8000          2
  66.8200          2
  66.8400          2
  66.8600          2
  66.8800          2
  66.9000          2
  66.9200          1
  66.9400          3
  66.9600          0
  66.9800          0
  67.0000          2
  67.0200          0
  67.0400          2
  67.0600          2
  67.0800          1
  67.1000          1
  67.1200          2
  67.1400          0
  67.1600          0
  67.1800          3
  67.2000          6
  67.2200          2
  67.2400          4
  67.2600          2
  67.2800          3
  67.3000          2
  67.3200          1
  67.3400          6
  67.3600          0
  67.3800          0
  67.4000          0
  67.4200          0
  67.4400          2
  67.4600          0
  67.4800          1
  67.5000          1
  67.5200          3
  67.5400          4
  67.5600          3
  67.5800          3
  67.6000          3
  67.6200          2
  67.6400          2
  67.6600          3
  67.6800          3
  67.7000          1
  67.7200          2
  67.7400          4
  67.7600          2
  67.7800          3
  67.8000          1
  67.8200          3
  67.8400          0
  67.8600          1
  67.8800          4
  67.9000          2
  67.9200          4
  67.9400          1
  67.9600          0
  67.9800          1
  68.0000          4
  68.0200          3
  68.0400          3
  68.0600          4
  68.0800          3
  68.1000          1
  68.1200          3
  68.1400          4
  68.1600          4
  68.1800          1
  68.2000          3
  68.2200          4
  68.2400          5
  68.2600          1
  68.2800          1
  68.3000          3
  68.3200          1
  68.3400          1
  68.3600          4
  68.3800          2
  68.4000          1
  68.4200          4
  68.4400          1
  68.4600          2
  68.4800          4
  68.5000          3
  68.5200          2
  68.5400          2
  68.5600          3
  68.5800          1
  68.6000          1
  68.6200          2
  68.6400          3
  68.6600          2
  68.6800          3
  68.7000          4
  68.7200          1
  68.7400          1
  68.7600          2
  68.7800          0
  68.8000          1
  68.8200          3
  68.8400          4
  68.8600          4
  68.8800          2
  68.9000          3
  68.9200          3
  68.9400          2
  68.9600          4
  68.9800          2
  69.0000          7
  69.0200          1
  69.0400          1
  69.0600          5
  69.0800          2
  69.1000          2
  69.1200          3
  69.1400          1
  69.1600          1
  69.1800          4
  69.2000          3
  69.2200          2
  69.2400          4
  69.2600          3
  69.2800          4
  69.3000          2
  69.3200          4
  69.3400          4
  69.3600          2
  69.3800          2
  69.4000          0
  69.4200          1
  69.4400          4
  69.4600          0
  69.4800          3
  69.5000          1
  69.5200          2
  69.5400          1
  69.5600          2
  69.5800          4
  69.6000          4
  69.6200          3
  69.6400          0
  69.6600          0
  69.6800          1
  69.7000          1
  69.7200          2
  69.7400          3
  69.7600          2
  69.7800          6
  69.8000          3
  69.8200          2
  69.8400          1
  69.8600          2
  69.8800          0
  69.9000          1
  69.9200          0
  69.9400          2
  69.9600          2
  69.9800          2
  70.0000          6
  70.0200          1
  70.0400          1
  70.0600          1
  70.0800          2
  70.1000          1
  70.1200          1
  70.1400          5
  70.1600          3
  70.1800          0
  70.2000          2
  70.2200          3
  70.2400          2
  70.2600          2
  70.2800          3
  70.3000          0
  70.3200          2
  70.3400          2
  70.3600          1
  70.3800          2
  70.4000          0
  70.4200          3
  70.4400          4
  70.4600          0
  70.4800          6
  70.5000          5
  70.5200          0
  70.5400          4
  70.5600          4
  70.5800          3
  70.6000          1
  70.6200          1
  70.6400          1
  70.6600          3
  70.6800          3
  70.7000          2
  70.7200          3
  70.7400          3
  70.7600          1
  70.7800          2
  70.8000          1
  70.8200          4
  70.8400          3
  70.8600          1
  70.8800          3
  70.9000          3
  70.9200          3
  70.9400          2
  70.9600          1
  70.9800          2
  71.0000          1
  71.0200          7
  71.0400          1
  71.0600          3
  71.0800          2
  71.1000          1
  71.1200          1
  71.1400          0
  71.1600          2
  71.1800          1
  71.2000          3
  71.2200          3
  71.2400          2
  71.2600          3
  71.2800          5
  71.3000          2
  71.3200          1
  71.3400          2
  71.3600          3
  71.3800          1
  71.4000          3
  71.4200          1
  71.4400          0
  71.4600          2
  71.4800          3
  71.5000          3
  71.5200          2
  71.5400          0
  71.5600          3
  71.5800          3
  71.6000          2
  71.6200          1
  71.6400          1
  71.6600          1
  71.6800          3
  71.7000          2
  71.7200          2
  71.7400          1
  71.7600          2
  71.7800          1
  71.8000          1
  71.8200          4
  71.8400          2
  71.8600          1
  71.8800          1
  71.9000          2
  71.9200          2
  71.9400          3
  71.9600          0
  71.9800          3
  72.0000          2
  72.0200          1
  72.0400          1
  72.0600          5
  72.0800          4
  72.1000          0
  72.1200          3
  72.1400          3
  72.1600          3
  72.1800          2
  72.2000          1
  72.2200          5
  72.2400          1
  72.2600          2
  72.2800          0
  72.3000          1
  72.3200          5
  72.3400          3
  72.3600          1
  72.3800          5
  72.4000          4
  72.4200          3
  72.4400          1
  72.4600          5
  72.4800          2
  72.5000          2
  72.5200          2
  72.5400          0
  72.5600          3
  72.5800          3
  72.6000          1
  72.6200          1
  72.6400          3
  72.6600          1
  72.6800          4
  72.7000          0
  72.7200          0
  72.7400          2
  72.7600          4
  72.7800          2
  72.8000          3
  72.8200          3
  72.8400          4
  72.8600          5
  72.8800          1
  72.9000          1
  72.9200          2
  72.9400          1
  72.9600          3
  72.9800          2
  73.0000          6
  73.0200          4
  73.0400          0
  73.0600          2
  73.0800          0
  73.1000          2
  73.1200          0
  73.1400          0
  73.1600          3
  73.1800          3
  73.2000          3
  73.2200          5
  73.2400          4
  73.2600          3
  73.2800          2
  73.3000          2
  73.3200          2
  73.3400          2
  73.3600          2
  73.3800          0
  73.4000          1
  73.4200          0
  73.4400          3
  73.4600          1
  73.4800          3
  73.5000          0
  73.5200          0
  73.5400          0
  73.5600          3
  73.5800          3
  73.6000          1
  73.6200          0
  73.6400          3
  73.6600          3
  73.6800          0
  73.7000          1
  73.7200          1
  73.7400          2
  73.7600          2
  73.7800          2
  73.8000          1
  73.8200          2
  73.8400          1
  73.8600          1
  73.8800          2
  73.9000          2
  73.9200          1
  73.9400          1
  73.9600          1
  73.9800          1
  74.0000          3
  74.0200          0
  74.0400          3
  74.0600          1
  74.0800          2
  74.1000          4
  74.1200          5
  74.1400          3
  74.1600          5
  74.1800          2
  74.2000          2
  74.2200          1
  74.2400          0
  74.2600          1
  74.2800          4
  74.3000          0
  74.3200          4
  74.3400          3
  74.3600          1
  74.3800          1
  74.4000          5
  74.4200          0
  74.4400          0
  74.4600          2
  74.4800          4
  74.5000          2
  74.5200          3
  74.5400          1
  74.5600          2
  74.5800          2
  74.6000          2
  74.6200          4
  74.6400          0
  74.6600          2
  74.6800          5
  74.7000          4
  74.7200          2
  74.7400          3
  74.7600          2
  74.7800          2
  74.8000          1
  74.8200          1
  74.8400          2
  74.8600          4
  74.8800          3
  74.9000          2
  74.9200          2
  74.9400          1
  74.9600          1
  74.9800          2
  75.0000          1
  75.0200          2
  75.0400          2
  75.0600          4
  75.0800          3
  75.1000          2
  75.1200          2
  75.1400          2
  75.1600          0
  75.1800          1
  75.2000          3
  75.2200          2
  75.2400          4
  75.2600          2
  75.2800          1
  75.3000          1
  75.3200          2
  75.3400          1
  75.3600          1
  75.3800          3
  75.4000          2
  75.4200          0
  75.4400          2
  75.4600          3
  75.4800          4
  75.5000          3
  75.5200          4
  75.5400          0
  75.5600          1
  75.5800          0
  75.6000          3
  75.6200          1
  75.6400          2
  75.6600          0
  75.6800          1
  75.7000          2
  75.7200          0
  75.7400          3
  75.7600          2
  75.7800          2
  75.8000          0
  75.8200          1
  75.8400          5
  75.8600          1
  75.8800          2
  75.9000          1
  75.9200          0
  75.9400          2
  75.9600          1
  75.9800          3
  76.0000          1
  76.0200          1
  76.0400          2
  76.0600          1
  76.0800          2
  76.1000          1
  76.1200          2
  76.1400          2
  76.1600          4
  76.1800          0
  76.2000          2
  76.2200          1
  76.2400          2
  76.2600          3
  76.2800          1
  76.3000          3
  76.3200          0
  76.3400          2
  76.3600          5
  76.3800          4
  76.4000          3
  76.4200          1
  76.4400          1
  76.4600          1
  76.4800          1
  76.5000          2
  76.5200          2
  76.5400          4
  76.5600          3
  76.5800          0
  76.6000          1
  76.6200          3
  76.6400          3
  76.6600          3
  76.6800          4
  76.7000          5
  76.7200          0
  76.7400          5
  76.7600          3
  76.7800          2
  76.8000          2
  76.8200          4
  76.8400          1
  76.8600          3
  76.8800          2
  76.9000          5
  76.9200          1
  76.9400          1
  76.9600          0
  76.9800          1
  77.0000          2
  77.0200          6
  77.0400          1
  77.0600          2
  77.0800          3
  77.1000          2
  77.1200          2
  77.1400          1
  77.1600          2
  77.1800          2
  77.2000          5
  77.2200          0
  77.2400          2
  77.2600          3
  77.2800          2
  77.3000          6
  77.3200          2
  77.3400          2
  77.3600          4
  77.3800          0
  77.4000          3
  77.4200          5
  77.4400          5
  77.4600          4
  77.4800          3
  77.5000          2
  77.5200          1
  77.5400          1
  77.5600          1
  77.5800          2
  77.6000          1
  77.6200          3
  77.6400          0
  77.6600          3
  77.6800          5
  77.7000          5
  77.7200          6
  77.7400          2
  77.7600          2
  77.7800          2
  77.8000          5
  77.8200          4
  77.8400          5
  77.8600          3
  77.8800          3
  77.9000          8
  77.9200          2
  77.9400          2
  77.9600          2
  77.9800          3
  78.0000          3
  78.0200          2
  78.0400          1
  78.0600          5
  78.0800          2
  78.1000          5
  78.1200          3
  78.1400          2
  78.1600          0
  78.1800          2
  78.2000          4
  78.2200          0
  78.2400          3
  78.2600          3
  78.2800          1
  78.3000          3
  78.3200          5
  78.3400          4
  78.3600          1
  78.3800          3
  78.4000          2
  78.4200          1
  78.4400          2
  78.4600          2
  78.4800          0
  78.5000          1
  78.5200          1
  78.5400          1
  78.5600          4
  78.5800          4
  78.6000          1
  78.6200          2
  78.6400          1
  78.6600          2
  78.6800          3
  78.7000          3
  78.7200          2
  78.7400          2
  78.7600          2
  78.7800          1
  78.8000          1
  78.8200          1
  78.8400          2
  78.8600          3
  78.8800          0
  78.9000          3
  78.9200          4
  78.9400          3
  78.9600          0
  78.9800          2
  79.0000          3
  79.0200          2
  79.0400          2
  79.0600          2
  79.0800          2
  79.1000          2
  79.1200          4
  79.1400          1
  79.1600          3
  79.1800          2
  79.2000          4
  79.2200          2
  79.2400          2
  79.2600          3
  79.2800          0
  79.3000          3
  79.3200          1
  79.3400          0
  79.3600          0
  79.3800          2
  79.4000          5
  79.4200          0
  79.4400          0
  79.4600          2
  79.4800          1
  79.5000          0
  79.5200          2
  79.5400          2
  79.5600          3
  79.5800          2
  79.6000          6
  79.6200          4
  79.6400          1
  79.6600          1
  79.6800          0
  79.7000          0
  79.7200          3
  79.7400          3
  79.7600          3
  79.7800          1
  79.8000          2
  79.8200          1
  79.8400          0
  79.8600          1
  79.8800          1
  79.9000          3
  79.9200          4
  79.9400          4
  79.9600          5
  79.9800          1
  80.0000          0
  80.0200          4
  80.0400          0
  80.0600          3
  80.0800          1
  80.1000          3
  80.1200          1
  80.1400          4
  80.1600          0
  80.1800          0
  80.2000          1
  80.2200          3
  80.2400          4
  80.2600          2
  80.2800          1
  80.3000          1
  80.3200          0
  80.3400          2
  80.3600          1
  80.3800          2
  80.4000          2
  80.4200          2
  80.4400          4
  80.4600          4
  80.4800          3
  80.5000          3
  80.5200          0
  80.5400          2
  80.5600          2
  80.5800          4
  80.6000          4
  80.6200          1
  80.6400          2
  80.6600          2
  80.6800          3
  80.7000          1
  80.7200          2
  80.7400          1
  80.7600          1
  80.7800          4
  80.8000          2
  80.8200          1
  80.8400          1
  80.8600          1
  80.8800          4
  80.9000          1
  80.9200          1
  80.9400          2
  80.9600          2
  80.9800          5
  81.0000          0
  81.0200          2
  81.0400          2
  81.0600          2
  81.0800          1
  81.1000          1
  81.1200          0
  81.1400          3
  81.1600          2
  81.1800          4
  81.2000          2
  81.2200          3
  81.2400          3
  81.2600          1
  81.2800          3
  81.3000          2
  81.3200          1
  81.3400          0
  81.3600          4
  81.3800          2
  81.4000          2
  81.4200          2
  81.4400          0
  81.4600          2
  81.4800          0
  81.5000          1
  81.5200          1
  81.5400          3
  81.5600          0
  81.5800          1
  81.6000          0
  81.6200          8
  81.6400          0
  81.6600          1
  81.6800          0
  81.7000          2
  81.7200          2
  81.7400          0
  81.7600          3
  81.7800          1
  81.8000          3
  81.8200          3
  81.8400          2
  81.8600          3
  81.8800          2
  81.9000          0
  81.9200          1
  81.9400          2
  81.9600          5
  81.9800          3
  82.0000          2
  82.0200          4
  82.0400          3
  82.0600          1
  82.0800          4
  82.1000          2
  82.1200          3
  82.1400          5
  82.1600          2
  82.1800          4
  82.2000          2
  82.2200          3
  82.2400          3
  82.2600          1
  82.2800          2
  82.3000          1
  82.3200          0
  82.3400          1
  82.3600          4
  82.3800          3
  82.4000          1
  82.4200          0
  82.4400          3
  82.4600          4
  82.4800          0
  82.5000          5
  82.5200          2
  82.5400          1
  82.5600          1
  82.5800          5
  82.6000          0
  82.6200          2
  82.6400          3
  82.6600          4
  82.6800          1
  82.7000          2
  82.7200          0
  82.7400          4
  82.7600          2
  82.7800          2
  82.8000          0
  82.8200          2
  82.8400          5
  82.8600          1
  82.8800          3
  82.9000          2
  82.9200          2
  82.9400          5
  82.9600          1
  82.9800          3
  83.0000          0
  83.0200          1
  83.0400          2
  83.0600          2
  83.0800          5
  83.1000          0
  83.1200          0
  83.1400          2
  83.1600          3
  83.1800          1
  83.2000          4
  83.2200          2
  83.2400          0
  83.2600          0
  83.2800          2
  83.3000          1
  83.3200          1
  83.3400          0
  83.3600          3
  83.3800          5
  83.4000          0
  83.4200          2
  83.4400          2
  83.4600          2
  83.4800          0
  83.5000          2
  83.5200          0
  83.5400          1
  83.5600          1
  83.5800          2
  83.6000          1
  83.6200          2
  83.6400          1
  83.6600          3
  83.6800          2
  83.7000          1
  83.7200          1
  83.7400          0
  83.7600          2
  83.7800          3
  83.8000          0
  83.8200          4
  83.8400          1
  83.8600          1
  83.8800          0
  83.9000          0
  83.9200          3
  83.9400          0
  83.9600          1
  83.9800          2
  84.0000          3
  84.0200          1
  84.0400          2
  84.0600          4
  84.0800          2
  84.1000          4
  84.1200          2
  84.1400          1
  84.1600          2
  84.1800          4
  84.2000          2
  84.2200          1
  84.2400          3
  84.2600          0
  84.2800          1
  84.3000          1
  84.3200          1
  84.3400          1
  84.3600          0
  84.3800          2
  84.4000          2
  84.4200          2
  84.4400          2
  84.4600          3
  84.4800          1
  84.5000          4
  84.5200          2
  84.5400          6
  84.5600          0
  84.5800          2
  84.6000          1
  84.6200          2
  84.6400          2
  84.6600          1
  84.6800          1
  84.7000          4
  84.7200          0
  84.7400          0
  84.7600          3
  84.7800          3
  84.8000          2
  84.8200          1
  84.8400          5
  84.8600          0
  84.8800          0
  84.9000          2
  84.9200          1
  84.9400          5
  84.9600          2
  84.9800          1
  85.0000          4
  85.0200          1
  85.0400          2
  85.0600          1
  85.0800          1
  85.1000          2
  85.1200          3
  85.1400          1
  85.1600          0
  85.1800          1
  85.2000          1
  85.2200          0
  85.2400          1
  85.2600          2
  85.2800          2
  85.3000          2
  85.3200          1
  85.3400          1
  85.3600          1
  85.3800          1
  85.4000          1
  85.4200          2
  85.4400          2
  85.4600          1
  85.4800          5
  85.5000          0
  85.5200          1
  85.5400          0
  85.5600          0
  85.5800          3
  85.6000          3
  85.6200          0
  85.6400          4
  85.6600          1
  85.6800          1
  85.7000          2
  85.7200          1
  85.7400          1
  85.7600          1
  85.7800          1
  85.8000          3
  85.8200          1
  85.8400          1
  85.8600          1
  85.8800          3
  85.9000          3
  85.9200          2
  85.9400          1
  85.9600          2
  85.9800          1
  86.0000          1
  86.0200          0
  86.0400          0
  86.0600          2
  86.0800          3
  86.1000          1
  86.1200          0
  86.1400          1
  86.1600          1
  86.1800          1
  86.2000          3
  86.2200          2
  86.2400          1
  86.2600          0
  86.2800          1
  86.3000          2
  86.3200          3
  86.3400          1
  86.3600          1
  86.3800          2
  86.4000          4
  86.4200          6
  86.4400          3
  86.4600          1
  86.4800          2
  86.5000          2
  86.5200          3
  86.5400          3
  86.5600          1
  86.5800          3
  86.6000          1
  86.6200          3
  86.6400          1
  86.6600          2
  86.6800          2
  86.7000          2
  86.7200          2
  86.7400          1
  86.7600          4
  86.7800          2
  86.8000          2
  86.8200          2
  86.8400          1
  86.8600          0
  86.8800          3
  86.9000          2
  86.9200          3
  86.9400          2
  86.9600          0
  86.9800          4
  87.0000          1
  87.0200          2
  87.0400          1
  87.0600          3
  87.0800          0
  87.1000          0
  87.1200          4
  87.1400          0
  87.1600          1
  87.1800          2
  87.2000          1
  87.2200          1
  87.2400          1
  87.2600          1
  87.2800          3
  87.3000          1
  87.3200          2
  87.3400          2
  87.3600          4
  87.3800          0
  87.4000          2
  87.4200          1
  87.4400          3
  87.4600          1
  87.4800          3
  87.5000          2
  87.5200          3
  87.5400          3
  87.5600          0
  87.5800          4
  87.6000          1
  87.6200          2
  87.6400          2
  87.6600          0
  87.6800          3
  87.7000          2
  87.7200          2
  87.7400          0
  87.7600          4
  87.7800          2
  87.8000          2
  87.8200          1
  87.8400          2
  87.8600          0
  87.8800          2
  87.9000          4
  87.9200          2
  87.9400          2
  87.9600          3
  87.9800          2
  88.0000          1
  88.0200          1
  88.0400          1
  88.0600          2
  88.0800          2
  88.1000          1
  88.1200          0
  88.1400          2
  88.1600          2
  88.1800          1
  88.2000          1
  88.2200          4
  88.2400          3
  88.2600          7
  88.2800          3
  88.3000          0
  88.3200          3
  88.3400          2
  88.3600          2
  88.3800          1
  88.4000          2
  88.4200          0
  88.4400          1
  88.4600          2
  88.4800          2
  88.5000          1
  88.5200          2
  88.5400          2
  88.5600          4
  88.5800          1
  88.6000          2
  88.6200          1
  88.6400          1
  88.6600          3
  88.6800          3
  88.7000          3
  88.7200          0
  88.7400          3
  88.7600          1
  88.7800          1
  88.8000          1
  88.8200          1
  88.8400          1
  88.8600          1
  88.8800          3
  88.9000          2
  88.9200          5
  88.9400          0
  88.9600          7
  88.9800          0
  89.0000          0
  89.0200          0
  89.0400          2
  89.0600          1
  89.0800          3
  89.1000          0
  89.1200          3
  89.1400          1
  89.1600          1
  89.1800          1
  89.2000          2
  89.2200          2
  89.2400          0
  89.2600          1
  89.2800          0
  89.3000          1
  89.3200          1
  89.3400          2
  89.3600          4
  89.3800          3
  89.4000          0
  89.4200          2
  89.4400          1
  89.4600          3
  89.4800          0
  89.5000          1
  89.5200          1
  89.5400          2
  89.5600          1
  89.5800          2
  89.6000          2
  89.6200          1
  89.6400          0
  89.6600          0
  89.6800          4
  89.7000          3
  89.7200          2
  89.7400          2
  89.7600          0
  89.7800          2
  89.8000          3
  89.8200          1
  89.8400          4
  89.8600          2
  89.8800          0
  89.9000          2
  89.9200          0
  89.9400          1
  89.9600          2
  89.9800          2
  90.0000          3
  90.0200          0
  90.0400          2
  90.0600          0
  90.0800          3
  90.1000          2
  90.1200          1
  90.1400          1
  90.1600          3
  90.1800          2
  90.2000          1
  90.2200          3
  90.2400          4
  90.2600          3
  90.2800          2
  90.3000          1
  90.3200          2
  90.3400          0
  90.3600          2
  90.3800          3
  90.4000          3
  90.4200          1
  90.4400          1
  90.4600          2
  90.4800          0
  90.5000          3
  90.5200          2
  90.5400          1
  90.5600          2
  90.5800          1
  90.6000          1
  90.6200          1
  90.6400          3
  90.6600          4
  90.6800          3
  90.7000          3
  90.7200          2
  90.7400          1
  90.7600          2
  90.7800          3
  90.8000          4
  90.8200          2
  90.8400          0
  90.8600          1
  90.8800          3
  90.9000          0
  90.9200          4
  90.9400          3
  90.9600          1
  90.9800          4
  91.0000          0
  91.0200          2
  91.0400          3
  91.0600          1
  91.0800          1
  91.1000          2
  91.1200          0
  91.1400          2
  91.1600          3
  91.1800          0
  91.2000          2
  91.2200          5
  91.2400          3
  91.2600          3
  91.2800          3
  91.3000          0
  91.3200          6
  91.3400          0
  91.3600          1
  91.3800          0
  91.4000          1
  91.4200          5
  91.4400          3
  91.4600          4
  91.4800          2
  91.5000          5
  91.5200          3
  91.5400          3
  91.5600          0
  91.5800          1
  91.6000          3
  91.6200          3
  91.6400          1
  91.6600          2
  91.6800          0
  91.7000          1
  91.7200          3
  91.7400          2
  91.7600          1
  91.7800          4
  91.8000          2
  91.8200          3
  91.8400          6
  91.8600          0
  91.8800          0
  91.9000          2
  91.9200          8
  91.9400          0
  91.9600          5
  91.9800          2
  92.0000          0
  92.0200          5
  92.0400          4
  92.0600          2
  92.0800          2
  92.1000          1
  92.1200          2
  92.1400          4
  92.1600          4
  92.1800          2
  92.2000          2
  92.2200          1
  92.2400          3
  92.2600          4
  92.2800          1
  92.3000          4
  92.3200          1
  92.3400          2
  92.3600          3
  92.3800          1
  92.4000          1
  92.4200          1
  92.4400          3
  92.4600          1
  92.4800          6
  92.5000          2
  92.5200          1
  92.5400          1
  92.5600          0
  92.5800          1
  92.6000          1
  92.6200          0
  92.6400          3
  92.6600          1
  92.6800          2
  92.7000          3
  92.7200          3
  92.7400          0
  92.7600          0
  92.7800          3
  92.8000          0
  92.8200          1
  92.8400          4
  92.8600          2
  92.8800          0
  92.9000          2
  92.9200          1
  92.9400          0
  92.9600          0
  92.9800          2
  93.0000          3
  93.0200          2
  93.0400          4
  93.0600          4
  93.0800          2
  93.1000          5
  93.1200          2
  93.1400          0
  93.1600          3
  93.1800          4
  93.2000          0
  93.2200          0
  93.2400          0
  93.2600          4
  93.2800          2
  93.3000          3
  93.3200          1
  93.3400          1
  93.3600          0
  93.3800          0
  93.4000          2
  93.4200          0
  93.4400          1
  93.4600          2
  93.4800          2
  93.5000          4
  93.5200          3
  93.5400          6
  93.5600          2
  93.5800          2
  93.6000          2
  93.6200          4
  93.6400          3
  93.6600          0
  93.6800          4
  93.7000          1
  93.7200          2
  93.7400          2
  93.7600          1
  93.7800          0
  93.8000          5
  93.8200          0
  93.8400          1
  93.8600          3
  93.8800          1
  93.9000          2
  93.9200          0
  93.9400          3
  93.9600          2
  93.9800          0
  94.0000          2
  94.0200          5
  94.0400          4
  94.0600          1
  94.0800          3
  94.1000          1
  94.1200          2
  94.1400          1
  94.1600          3
  94.1800          2
  94.2000          1
  94.2200          3
  94.2400          0
  94.2600          3
  94.2800          1
  94.3000          1
  94.3200          1
  94.3400          6
  94.3600          4
  94.3800          0
  94.4000          1
  94.4200          3
  94.4400          2
  94.4600          2
  94.4800          1
  94.5000          2
  94.5200          3
  94.5400          1
  94.5600          5
  94.5800          1
  94.6000          2
  94.6200          3
  94.6400          0
  94.6600          2
  94.6800          1
  94.7000          2
  94.7200          2
  94.7400          4
  94.7600          4
  94.7800          1
  94.8000          2
  94.8200          4
  94.8400          1
  94.8600          1
  94.8800          4
  94.9000          1
  94.9200          1
  94.9400          1
  94.9600          3
  94.9800          4
  95.0000          1
  95.0200          2
  95.0400          4
  95.0600          2
  95.0800          2
  95.1000          1
  95.1200          4
  95.1400          1
  95.1600          0
  95.1800          1
  95.2000          1
  95.2200          2
  95.2400          2
  95.2600          4
  95.2800          1
  95.3000          0
  95.3200          2
  95.3400          3
  95.3600          1
  95.3800          1
  95.4000          3
  95.4200          2
  95.4400          3
  95.4600          2
  95.4800          1
  95.5000          2
  95.5200          3
  95.5400          3
  95.5600          2
  95.5800          1
  95.6000          1
  95.6200          2
  95.6400          2
  95.6600          5
  95.6800          4
  95.7000          3
  95.7200          3
  95.7400          2
  95.7600          2
  95.7800          3
  95.8000          3
  95.8200          0
  95.8400          1
  95.8600          2
  95.8800          2
  95.9000          1
  95.9200          2
  95.9400          2
  95.9600          0
  95.9800          0
  96.0000          2
  96.0200          0
  96.0400          0
  96.0600          1
  96.0800          2
  96.1000          1
  96.1200          2
  96.1400          2
  96.1600          0
  96.1800          2
  96.2000          1
  96.2200          2
  96.2400          0
  96.2600          1
  96.2800          1
  96.3000          3
  96.3200          2
  96.3400          4
  96.3600          4
  96.3800          2
  96.4000          3
  96.4200          3
  96.4400          0
  96.4600          2
  96.4800          2
  96.5000          2
  96.5200          2
  96.5400          8
  96.5600          1
  96.5800          3
  96.6000          1
  96.6200          2
  96.6400          3
  96.6600          2
  96.6800          1
  96.7000          3
  96.7200          2
  96.7400          2
  96.7600          1
  96.7800          4
  96.8000          3
  96.8200          2
  96.8400          3
  96.8600          0
  96.8800          2
  96.9000          2
  96.9200          2
  96.9400          1
  96.9600          1
  96.9800          1
  97.0000          3
  97.0200          2
  97.0400          3
  97.0600          1
  97.0800          1
  97.1000          7
  97.1200          3
  97.1400          5
  97.1600          3
  97.1800          2
  97.2000          1
  97.2200          1
  97.2400          3
  97.2600          0
  97.2800          2
  97.3000          3
  97.3200          4
  97.3400          0
  97.3600          1
  97.3800          1
  97.4000          2
  97.4200          2
  97.4400          3
  97.4600          3
  97.4800          0
  97.5000          4
  97.5200          1
  97.5400          4
  97.5600          2
  97.5800          0
  97.6000          2
  97.6200          1
  97.6400          0
  97.6600          2
  97.6800          3
  97.7000          2
  97.7200          0
  97.7400          1
  97.7600          3
  97.7800          1
  97.8000          3
  97.8200          1
  97.8400          5
  97.8600          1
  97.8800          2
  97.9000          2
  97.9200          1
  97.9400          3
  97.9600          2
  97.9800          1
  98.0000          1
  98.0200          3
  98.0400          2
  98.0600          1
  98.0800          1
  98.1000          7
  98.1200          2
  98.1400          2
  98.1600          3
  98.1800          4
  98.2000          0
  98.2200          5
  98.2400          1
  98.2600          2
  98.2800          2
  98.3000          2
  98.3200          2
  98.3400          2
  98.3600          2
  98.3800          0
  98.4000          1
  98.4200          1
  98.4400          3
  98.4600          2
  98.4800          0
  98.5000          2
  98.5200          4
  98.5400          2
  98.5600          0
  98.5800          3
  98.6000          5
  98.6200          4
  98.6400          0
  98.6600          1
  98.6800          2
  98.7000          1
  98.7200          2
  98.7400          3
  98.7600          3
  98.7800          1
  98.8000          2
  98.8200          2
  98.8400          3
  98.8600          0
  98.8800          2
  98.9000          5
  98.9200          1
  98.9400          1
  98.9600          1
  98.9800          2
  99.0000          0
  99.0200          4
  99.0400          2
  99.0600          2
  99.0800          2
  99.1000          2
  99.1200          2
  99.1400          1
  99.1600          5
  99.1800          5
  99.2000          2
  99.2200          2
  99.2400          4
  99.2600          4
  99.2800          0
  99.3000          2
  99.3200          1
  99.3400          1
  99.3600          1
  99.3800          0
  99.4000          1
  99.4200          3
  99.4400          3
  99.4600          4
  99.4800          2
  99.5000          4
  99.5200          0
  99.5400          3
  99.5600          2
  99.5800          2
  99.6000          0
  99.6200          4
  99.6400          2
  99.6600          1
  99.6800          0
  99.7000          2
  99.7200          0
  99.7400          1
  99.7600          4
  99.7800          1
  99.8000          2
  99.8200          2
  99.8400          2
  99.8600          3
  99.8800          1
  99.9000          3
  99.9200          3
  99.9400          2
  99.9600          2
  99.9800          2
 100.0000          2
 100.0200          4
 100.0400          1
 100.0600          0
 100.0800          4
 100.1000          0
 100.1200          3
 100.1400          4
 100.1600          2
 100.1800          2
 100.2000          0
 100.2200          3
 100.2400          2
 100.2600          2
 100.2800          2
 100.3000          1
 100.3200          1
 100.3400          0
 100.3600          0
 100.3800          1
 100.4000          1
 100.4200          4
 100.4400          1
 100.4600          4
 100.4800          3
 100.5000          2
 100.5200          2
 100.5400          5
 100.5600          1
 100.5800          0
 100.6000          1
 100.6200          1
 100.6400          1
 100.6600          1
 100.6800          1
 100.7000          4
 100.7200          2
 100.7400          4
 100.7600          0
 100.7800          4
 100.8000          2
 100.8200          2
 100.8400          7
 100.8600          3
 100.8800          0
 100.9000          1
 100.9200          0
 100.9400          1
 100.9600          1
 100.9800          1
 101.0000          2
 101.0200          0
 101.0400          2
 101.0600          3
 101.0800          3
 101.1000          2
 101.1200          4
 101.1400          4
 101.1600          1
 101.1800          3
 101.2000          1
 101.2200          1
 101.2400          1
 101.2600          2
 101.2800          1
 101.3000          2
 101.3200          3
 101.3400          3
 101.3600          0
 101.3800          1
 101.4000          2
 101.4200          7
 101.4400          1
 101.4600          5
 101.4800          2
 101.5000          5
 101.5200          4
 101.5400          1
 101.5600          0
 101.5800          2
 101.6000          1
 101.6200          1
 101.6400          4
 101.6600          2
 101.6800          4
 101.7000          3
 101.7200          2
 101.7400          3
 101.7600          1
 101.7800          0
 101.8000          3
 101.8200          1
 101.8400          1
 101.8600          2
 101.8800          2
 101.9000          2
 101.9200          3
 101.9400          0
 101.9600          1
 101.9800          1
 102.0000          1
 102.0200          1
 102.0400          2
 102.0600          2
 102.0800          3
 102.1000          0
 102.1200          2
 102.1400          0
 102.1600          1
 102.1800          3
 102.2000          1
 102.2200          3
 102.2400          1
 102.2600          4
 102.2800          1
 102.3000          4
 102.3200          1
 102.3400          2
 102.3600          1
 102.3800          3
 102.4000          1
 102.4200          2
 102.4400          4
 102.4600          4
 102.4800          1
 102.5000          3
 102.5200          3
 102.5400          5
 102.5600          1
 102.5800          6
 102.6000          4
 102.6200          4
 102.6400          3
 102.6600          1
 102.6800          5
 102.7000          4
 102.7200          2
 102.7400          2
 102.7600          0
 102.7800          3
 102.8000          3
 102.8200          3
 102.8400          2
 102.8600          0
 102.8800          3
 102.9000          1
 102.9200          1
 102.9400          2
 102.9600          2
 102.9800          1
 103.0000          1
 103.0200          0
 103.0400          3
 103.0600          3
 103.0800          1
 103.1000          0
 103.1200          4
 103.1400          5
 103.1600          4
 103.1800          1
 103.2000          1
 103.2200          3
 103.2400          4
 103.2600          1
 103.2800          0
 103.3000          2
 103.3200          3
 103.3400          1
 103.3600          0
 103.3800          2
 103.4000          1
 103.4200          2
 103.4400          0
 103.4600          2
 103.4800          0
 103.5000          5
 103.5200          3
 103.5400          2
 103.5600          0
 103.5800          2
 103.6000          4
 103.6200          0
 103.6400          1
 103.6600          1
 103.6800          3
 103.7000          5
 103.7200          1
 103.7400          2
 103.7600          4
 103.7800          4
 103.8000          3
 103.8200          1
 103.8400          0
 103.8600          4
 103.8800          1
 103.9000          1
 103.9200          2
 103.9400          3
 103.9600          2
 103.9800          2
 104.0000          2
 104.0200          1
 104.0400          2
 104.0600          2
 104.0800          2
 104.1000          5
 104.1200          1
 104.1400          1
 104.1600          2
 104.1800          1
 104.2000          2
 104.2200          1
 104.2400          2
 104.2600          1
 104.2800          2
 104.3000          3
 104.3200          1
 104.3400          5
 104.3600          2
 104.3800          1
 104.4000          0
 104.4200          0
 104.4400          3
 104.4600          2
 104.4800          5
 104.5000          1
 104.5200          3
 104.5400          1
 104.5600          2
 104.5800          5
 104.6000          1
 104.6200          1
 104.6400          1
 104.6600          1
 104.6800          1
 104.7000          2
 104.7200          2
 104.7400          1
 104.7600          3
 104.7800          0
 104.8000          1
 104.8200          4
 104.8400          5
 104.8600          1
 104.8800          3
 104.9000          3
 104.9200          2
 104.9400          1
 104.9600          0
 104.9800          1
 105.0000          1
 105.0200          3
 105.0400          0
 105.0600          1
 105.0800          1
 105.1000          4
 105.1200          2
 105.1400          2
 105.1600          3
 105.1800          3
 105.2000          1
 105.2200          1
 105.2400          3
 105.2600          3
 105.2800          3
 105.3000          2
 105.3200          3
 105.3400          2
 105.3600          2
 105.3800          1
 105.4000          4
 105.4200          1
 105.4400          1
 105.4600          0
 105.4800          1
 105.5000          2
 105.5200          1
 105.5400          2
 105.5600          1
 105.5800          0
 105.6000          4
 105.6200          0
 105.6400          3
 105.6600          2
 105.6800          0
 105.7000          1
 105.7200          1
 105.7400          0
 105.7600          0
 105.7800          2
 105.8000          3
 105.8200          2
 105.8400          0
 105.8600          1
 105.8800          2
 105.9000          1
 105.9200          1
 105.9400          1
 105.9600          1
 105.9800          1
 106.0000          2
 106.0200          1
 106.0400          0
 106.0600          2
 106.0800          1
 106.1000          2
 106.1200          5
 106.1400          1
 106.1600          2
 106.1800          2
 106.2000          3
 106.2200          1
 106.2400          6
 106.2600          6
 106.2800          1
 106.3000          4
 106.3200          1
 106.3400          3
 106.3600          1
 106.3800          3
 106.4000          4
 106.4200          1
 106.4400          4
 106.4600          3
 106.4800          2
 106.5000          0
 106.5200          4
 106.5400          3
 106.5600          2
 106.5800          4
 106.6000          3
 106.6200          3
 106.6400          5
 106.6600          2
 106.6800          1
 106.7000          3
 106.7200          0
 106.7400          3
 106.7600          5
 106.7800          1
 106.8000          2
 106.8200          1
 106.8400          1
 106.8600          4
 106.8800          0
 106.9000          0
 106.9200          1
 106.9400          3
 106.9600          1
 106.9800          1
 107.0000          4
 107.0200          1
 107.0400          0
 107.0600          0
 107.0800          4
 107.1000          4
 107.1200          5
 107.1400          2
 107.1600          4
 107.1800          6
 107.2000          4
 107.2200          3
 107.2400          0
 107.2600          2
 107.2800          2
 107.3000          0
 107.3200          1
 107.3400          2
 107.3600          3
 107.3800          2
 107.4000          6
 107.4200          3
 107.4400          3
 107.4600          5
 107.4800          3
 107.5000          2
 107.5200          2
 107.5400          2
 107.5600          4
 107.5800          4
 107.6000          2
 107.6200          4
 107.6400          2
 107.6600          4
 107.6800          2
 107.7000          2
 107.7200          1
 107.7400          4
 107.7600          0
 107.7800          3
 107.8000          2
 107.8200          2
 107.8400          1
 107.8600          5
 107.8800          4
 107.9000          0
 107.9200          2
 107.9400          5
 107.9600          1
 107.9800          2
 108.0000          5
 108.0200          2
 108.0400          3
 108.0600          5
 108.0800          1
 108.1000          3
 108.1200          3
 108.1400          3
 108.1600          1
 108.1800          2
 108.2000          3
 108.2200          2
 108.2400          4
 108.2600          5
 108.2800          1
 108.3000          3
 108.3200          2
 108.3400          3
 108.3600          1
 108.3800          4
 108.4000          5
 108.4200          1
 108.4400          2
 108.4600          1
 108.4800          2
 108.5000          3
 108.5200          0
 108.5400          2
 108.5600          0
 108.5800          5
 108.6000          1
 108.6200          2
 108.6400          2
 108.6600          5
 108.6800          2
 108.7000          4
 108.7200          1
 108.7400          2
 108.7600          3
 108.7800          4
 108.8000          3
 108.8200          6
 108.8400          4
 108.8600          4
 108.8800          1
 108.9000          3
 108.9200          3
 108.9400          3
 108.9600          1
 108.9800          3
 109.0000          3
 109.0200          2
 109.0400          1
 109.0600          1
 109.0800          2
 109.1000          3
 109.1200          2
 109.1400          5
 109.1600          4
 109.1800          5
 109.2000          2
 109.2200          4
 109.2400          4
 109.2600          7
 109.2800          1
 109.3000          1
 109.3200          2
 109.3400          0
 109.3600          1
 109.3800          3
 109.4000          3
 109.4200          0
 109.4400          2
 109.4600          3
 109.4800          4
 109.5000          1
 109.5200          3
 109.5400          3
 109.5600          2
 109.5800          3
 109.6000          3
 109.6200          2
 109.6400          1
 109.6600          5
 109.6800          4
 109.7000          3
 109.7200          2
 109.7400          3
 109.7600          2
 109.7800          2
 109.8000          0
 109.8200          0
 109.8400          2
 109.8600          2
 109.8800          4
 109.9000          5
 109.9200          4
 109.9400          2
 109.9600          3
 109.9800          0
 110.0000          2
 110.0200          1
 110.0400          4
 110.0600          7
 110.0800          6
 110.1000          2
 110.1200          5
 110.1400          0
 110.1600          1
 110.1800          1
 110.2000          1
 110.2200          4
 110.2400          1
 110.2600          3
 110.2800          2
 110.3000          4
 110.3200          2
 110.3400          1
 110.3600          1
 110.3800          1
 110.4000          3
 110.4200          3
 110.4400          0
 110.4600          4
 110.4800          3
 110.5000          3
 110.5200          2
 110.5400          1
 110.5600          2
 110.5800          4
 110.6000          4
 110.6200          7
 110.6400          3
 110.6600          0
 110.6800          3
 110.7000          5
 110.7200          3
 110.7400          3
 110.7600          5
 110.7800          3
 110.8000          1
 110.8200          3
 110.8400          3
 110.8600          3
 110.8800          1
 110.9000          1
 110.9200          5
 110.9400          5
 110.9600          2
 110.9800          4
 111.0000          1
 111.0200          2
 111.0400          4
 111.0600          0
 111.0800          3
 111.1000          2
 111.1200          4
 111.1400          4
 111.1600          3
 111.1800          3
 111.2000          3
 111.2200          3
 111.2400          3
 111.2600          3
 111.2800          3
 111.3000          4
 111.3200          2
 111.3400          4
 111.3600          3
 111.3800          2
 111.4000          7
 111.4200          4
 111.4400          0
 111.4600          3
 111.4800          4
 111.5000          4
 111.5200          0
 111.5400          3
 111.5600          5
 111.5800          3
 111.6000          3
 111.6200          3
 111.6400          4
 111.6600          2
 111.6800          1
 111.7000          4
 111.7200          3
 111.7400          3
 111.7600          3
 111.7800          7
 111.8000          6
 111.8200          3
 111.8400          4
 111.8600          6
 111.8800          0
 111.9000          4
 111.9200          5
 111.9400          6
 111.9600          2
 111.9800          1
 112.0000          5
 112.0200          3
 112.0400          0
 112.0600          0
 112.0800          5
 112.1000          1
 112.1200          3
 112.1400          1
 112.1600          5
 112.1800          1
 112.2000          2
 112.2200          3
 112.2400          2
 112.2600          2
 112.2800          0
 112.3000          3
 112.3200          3
 112.3400          2
 112.3600          3
 112.3800          1
 112.4000          4
 112.4200          2
 112.4400          2
 112.4600          0
 112.4800          1
 112.5000          3
 112.5200          3
 112.5400          4
 112.5600          1
 112.5800          3
 112.6000          5
 112.6200          2
 112.6400          4
 112.6600          3
 112.6800          5
 112.7000          2
 112.7200          2
 112.7400          1
 112.7600          2
 112.7800          2
 112.8000          4
 112.8200          5
 112.8400          2
 112.8600          1
 112.8800          3
 112.9000          3
 112.9200          4
 112.9400          3
 112.9600          1
 112.9800          3
 113.0000          2
 113.0200          8
 113.0400          4
 113.0600          5
 113.0800          5
 113.1000          7
 113.1200          5
 113.1400          9
 113.1600          3
 113.1800          4
 113.2000          4
 113.2200         10
 113.2400          9
 113.2600          6
 113.2800          6
 113.3000          4
 113.3200          6
 113.3400          3
 113.3600          4
 113.3800          3
 113.4000          5
 113.4200          6
 113.4400          7
 113.4600          5
 113.4800          6
 113.5000          5
 113.5200          9
 113.5400          9
 113.5600          5
 113.5800          8
 113.6000          8
 113.6200          9
 113.6400          7
 113.6600         10
 113.6800          8
 113.7000          4
 113.7200          8
 113.7400         11
 113.7600         10
 113.7800         11
 113.8000          8
 113.8200          1
 113.8400         15
 113.8600         14
 113.8800         11
 113.9000          8
 113.9200         10
 113.9400          9
 113.9600          5
 113.9800         11
 114.0000          4
 114.0200          8
 114.0400          7
 114.0600          6
 114.0800         10
 114.1000          5
 114.1200          6
 114.1400         12
 114.1600         16
 114.1800          7
 114.2000          7
 114.2200          8
 114.2400          4
 114.2600         13
 114.2800          9
 114.3000          7
 114.3200          8
 114.3400          8
 114.3600          8
 114.3800          6
 114.4000         10
 114.4200         15
 114.4400          9
 114.4600          8
 114.4800         10
 114.5000         11
 114.5200         12
 114.5400         10
 114.5600         14
 114.5800         14
 114.6000          6
 114.6200         19
 114.6400         14
 114.6600          7
 114.6800         10
 114.7000         14
 114.7200         11
 114.7400         12
 114.7600         12
 114.7800         11
 114.8000          8
 114.8200         16
 114.8400         12
 114.8600         11
 114.8800          6
 114.9000         11
 114.9200         13
 114.9400          9
 114.9600         19
 114.9800         11
 115.0000          6
 115.0200         10
 115.0400          7
 115.0600          9
 115.0800         10
 115.1000         14
 115.1200         12
 115.1400         16
 115.1600         18
 115.1800         11
 115.2000         17
 115.2200         20
 115.2400         16
 115.2600         12
 115.2800          9
 115.3000         10
 115.3200         10
 115.3400         18
 115.3600         10
 115.3800         15
 115.4000         15
 115.4200          9
 115.4400         12
 115.4600          7
 115.4800         14
 115.5000         14
 115.5200         13
 115.5400         25
 115.5600         17
 115.5800         18
 115.6000         17
 115.6200         12
 115.6400         17
 115.6600         16
 115.6800         19
 115.7000         20
 115.7200         15
 115.7400         18
 115.7600         12
 115.7800         26
 115.8000         14
 115.8200         24
 115.8400         14
 115.8600         23
 115.8800         10
 115.9000         15
 115.9200         16
 115.9400         14
 115.9600         19
 115.9800         19
 116.0000         12
 116.0200         18
 116.0400         19
 116.0600         18
 116.0800         19
 116.1000         20
 116.1200         19
 116.1400         23
 116.1600         19
 116.1800         24
 116.2000         25
 116.2200         18
 116.2400         17
 116.2600         17
 116.2800         18
 116.3000         24
 116.3200         13
 116.3400         17
 116.3600         22
 116.3800         20
 116.4000         25
 116.4200         16
 116.4400         23
 116.4600         22
 116.4800         22
 116.5000         23
 116.5200         22
 116.5400         13
 116.5600         28
 116.5800         35
 116.6000         23
 116.6200         25
 116.6400         26
 116.6600         27
 116.6800         23
 116.7000         24
 116.7200         26
 116.7400         20
 116.7600         23
 116.7800         25
 116.8000         23
 116.8200         40
 116.8400         26
 116.8600         25
 116.8800         28
 116.9000         22
 116.9200         42
 116.9400         21
 116.9600         34
 116.9800         25
 117.0000         31
 117.0200         32
 117.0400         28
 117.0600         23
 117.0800         46
 117.1000         29
 117.1200         29
 117.1400         29
 117.1600         32
 117.1800         39
 117.2000         45
 117.2200         30
 117.2400         44
 117.2600         39
 117.2800         31
 117.3000         35
 117.3200         43
 117.3400         35
 117.3600         37
 117.3800         39
 117.4000         25
 117.4200         26
 117.4400         31
 117.4600         42
 117.4800         36
 117.5000         45
 117.5200         38
 117.5400         39
 117.5600         45
 117.5800         41
 117.6000         52
 117.6200         42
 117.6400         42
 117.6600         70
 117.6800         47
 117.7000         48
 117.7200         37
 117.7400         33
 117.7600         55
 117.7800         59
 117.8000         43
 117.8200         70
 117.8400         75
 117.8600         57
 117.8800         46
 117.9000         64
 117.9200         62
 117.9400         47
 117.9600         67
 117.9800         63
 118.0000         72
 118.0200         56
 118.0400         66
 118.0600         79
 118.0800         77
 118.1000         63
 118.1200         78
 118.1400         76
 118.1600         67
 118.1800         70
 118.2000         71
 118.2200        101
 118.2400         93
 118.2600         94
 118.2800         91
 118.3000         97
 118.3200        114
 118.3400        117
 118.3600        127
 118.3800        146
 118.4000        132
 118.4200        175
 118.4400        190
 118.4600        181
 118.4800        210
 118.5000        255
 118.5200        231
 118.5400        274
 118.5600        289
 118.5800        313
 118.6000        306
 118.6200        320
 118.6400        326
 118.6600        300
 118.6800        293
 118.7000        285
 118.7200        325
 118.7400        276
 118.7600        272
 118.7800        305
 118.8000        300
 118.8200        318
 118.8400        283
 118.8600        334
 118.8800        324
 118.9000        339
 118.9200        358
 118.9400        367
 118.9600        397
 118.9800        370
 119.0000        452
 119.0200        466
 119.0400        511
 119.0600        590
 119.0800        656
 119.1000        756
 119.1200        863
 119.1400        948
 119.1600       1164
 119.1800       1352
 119.2000       1554
 119.2200       1829
 119.2400       2250
 119.2600       2948
 119.2800       3942
 119.3000       5521
 119.3200       7998
 119.3400      12137
 119.3600      19191
 119.3800      28374
 119.4000      37308
 119.4200      41847
 119.4400      38659
 119.4600      32557
 119.4800      24657
 119.5000      17976
 119.5200      12979
 119.5400       9081
 119.5600       6478
 119.5800       4756
 119.6000       3635
 119.6200       2904
 119.6400       2448
 119.6600       2127
 119.6800       1885
 119.7000       1982
 119.7200       2071
 119.7400       2260
 119.7600       2839
 119.7800       3503
 119.8000       4731
 119.8200       6763
 119.8400       9865
 119.8600      14240
 119.8800      18526
 119.9000      20705
 119.9200      20867
 119.9400      18668
 119.9600      15074
 119.9800      11545
 120.0000       8416
 120.0200       6043
 120.0400       4211
 120.0600       3102
 120.0800       2373
 120.1000       1886
 120.1200       1484
 120.1400       1162
 120.1600        982
 120.1800        886
 120.2000        754
 120.2200        666
 120.2400        591
 120.2600        531
 120.2800        500
 120.3000        437
 120.3200        430
 120.3400        360
 120.3600        394
 120.3800        361
 120.4000        329
 120.4200        311
 120.4400        311
 120.4600        296
 120.4800        265
 120.5000        249
 120.5200        236
 120.5400        231
 120.5600        224
 120.5800        203
 120.6000        201
 120.6200        194
 120.6400        176
 120.6600        190
 120.6800        171
 120.7000        158
 120.7200        162
 120.7400        145
 120.7600        139
 120.7800        146
 120.8000        146
 120.8200        131
 120.8400        142
 120.8600        123
 120.8800        132
 120.9000        125
 120.9200        133
 120.9400        112
 120.9600        118
 120.9800        105
 121.0000        115
 121.0200        113
 121.0400         96
 121.0600         83
 121.0800        103
 121.1000         96
 121.1200        103
 121.1400         90
 121.1600         84
 121.1800         89
 121.2000         89
 121.2200         96
 121.2400         74
 121.2600         86
 121.2800         78
 121.3000         98
 121.3200         70
 121.3400         74
 121.3600         76
 121.3800         87
 121.4000         82
 121.4200         79
 121.4400         64
 121.4600         71
 121.4800         71
 121.5000         62
 121.5200         74
 121.5400         61
 121.5600         55
 121.5800         64
 121.6000         74
 121.6200         67
 121.6400         69
 121.6600         67
 121.6800         55
 121.7000         64
 121.7200         49
 121.7400         53
 121.7600         68
 121.7800         63
 121.8000         59
 121.8200         65
 121.8400         60
 121.8600         56
 121.8800         63
 121.9000         57
 121.9200         52
 121.9400         52
 121.9600         77
 121.9800         53
 122.0000         70
